70-100-unpol_at_679.99nm_cut_at_1283.50Y_01.dat
24.01.2024
11:29:54
cut middle at Y: 1283.50
top cursor: 1343 down cursor: 1224 mean of: 119 lines , 2560 datapoints
wavelength(nm)	intensity[arb. units]
515.994	1662.857
516.122	1567.328
516.250	1541.866
516.378	1526.924
516.506	1529.336
516.635	1531.941
516.763	1545.882
516.891	1561.017
517.019	1557.109
517.147	1557.160
517.275	1549.647
517.403	1550.832
517.531	1555.529
517.660	1552.723
517.788	1557.555
517.916	1567.798
518.044	1542.050
518.172	1558.294
518.300	1570.025
518.428	1559.185
518.556	1566.000
518.685	1562.546
518.813	1563.059
518.941	1578.849
519.069	1570.798
519.197	1567.908
519.325	1579.504
519.453	1580.832
519.581	1598.739
519.710	1584.269
519.838	1589.714
519.966	1605.798
520.094	1595.235
520.222	1601.655
520.350	1614.866
520.478	1637.151
520.606	1636.647
520.735	1620.992
520.863	1640.630
520.991	1647.916
521.119	1638.353
521.247	1648.311
521.375	1660.975
521.503	1666.798
521.631	1680.067
521.760	1667.706
521.888	1672.849
522.016	1685.790
522.144	1674.034
522.272	1682.118
522.400	1691.832
522.528	1706.697
522.656	1688.286
522.785	1708.941
522.913	1713.202
523.041	1697.412
523.169	1702.882
523.297	1709.462
523.425	1713.496
523.553	1710.076
523.681	1708.235
523.810	1723.756
523.938	1731.109
524.066	1722.538
524.194	1720.563
524.322	1733.109
524.450	1729.235
524.578	1725.143
524.706	1740.067
524.835	1729.899
524.963	1737.739
525.091	1726.042
525.219	1732.008
525.347	1719.235
525.475	1729.563
525.603	1737.723
525.731	1733.160
525.860	1747.261
525.988	1725.361
526.116	1727.739
526.244	1739.479
526.372	1726.134
526.500	1740.462
526.628	1751.151
526.756	1732.067
526.885	1749.092
527.013	1746.084
527.141	1745.084
527.269	1748.218
527.397	1735.908
527.525	1753.134
527.653	1742.605
527.781	1742.017
527.910	1769.731
528.038	1769.395
528.166	1784.983
528.294	1756.143
528.422	1763.504
528.550	1782.395
528.678	1773.067
528.806	1779.924
528.935	1787.303
529.063	1786.782
529.191	1793.597
529.319	1800.723
529.447	1805.765
529.575	1795.126
529.703	1810.622
529.831	1817.521
529.960	1822.975
530.088	1810.639
530.216	1818.983
530.344	1817.277
530.472	1824.000
530.600	1827.092
530.728	1824.689
530.856	1833.697
530.985	1824.387
531.113	1825.681
531.241	1826.134
531.369	1842.084
531.497	1835.092
531.625	1831.832
531.753	1827.202
531.881	1838.210
532.010	1834.193
532.138	1828.176
532.266	1828.101
532.394	1844.336
532.522	1813.328
532.650	1823.580
532.778	1837.521
532.906	1828.857
533.035	1826.882
533.163	1812.193
533.291	1816.689
533.419	1812.403
533.547	1823.908
533.675	1828.059
533.803	1814.378
533.931	1822.076
534.060	1819.790
534.188	1829.832
534.316	1836.622
534.444	1824.017
534.572	1836.160
534.700	1832.966
534.828	1825.605
534.956	1845.529
535.085	1846.866
535.213	1844.622
535.341	1859.160
535.469	1834.723
535.597	1845.950
535.725	1875.815
535.853	1866.689
535.981	1864.924
536.110	1881.445
536.238	1884.966
536.366	1900.378
536.494	1881.227
536.622	1897.050
536.750	1910.168
536.878	1902.126
537.006	1914.084
537.135	1911.529
537.263	1923.294
537.391	1936.126
537.519	1914.933
537.647	1943.513
537.775	1944.622
537.903	1952.118
538.031	1941.092
538.160	1949.983
538.288	1958.950
538.416	1971.059
538.544	1963.193
538.672	1974.252
538.800	1976.975
538.928	1972.336
539.056	1977.924
539.185	1974.496
539.313	1960.815
539.441	1968.681
539.569	1989.723
539.697	1990.824
539.825	1989.084
539.953	1989.235
540.081	1975.815
540.210	1991.866
540.338	1975.403
540.466	1989.672
540.594	1998.941
540.722	1982.958
540.850	1997.185
540.978	1990.891
541.106	1993.513
541.235	2001.412
541.363	1982.697
541.491	1990.555
541.619	1991.143
541.747	1984.319
541.875	2007.639
542.003	1991.933
542.131	2008.361
542.260	2014.042
542.388	2004.252
542.516	2005.252
542.644	2004.210
542.772	2012.731
542.900	2017.496
543.028	2022.067
543.156	2002.504
543.285	2030.748
543.413	2011.790
543.541	2016.882
543.669	2029.345
543.797	2018.353
543.925	2010.824
544.053	2034.723
544.181	2020.563
544.310	2016.513
544.438	2034.529
544.566	2024.958
544.694	2029.613
544.822	2038.782
544.950	2041.958
545.078	2020.269
545.206	2023.529
545.335	2056.933
545.463	2037.622
545.591	2020.824
545.719	2038.252
545.847	2044.454
545.975	2050.017
546.103	2036.420
546.231	2052.059
546.360	2043.975
546.488	2039.084
546.616	2046.084
546.744	2059.319
546.872	2047.832
547.000	2058.790
547.128	2046.882
547.256	2049.832
547.385	2031.227
547.513	2037.765
547.641	2057.311
547.769	2059.336
547.897	2064.496
548.025	2061.529
548.153	2066.933
548.281	2045.042
548.410	2068.807
548.538	2066.454
548.666	2062.983
548.794	2064.714
548.922	2060.916
549.050	2072.479
549.178	2073.101
549.306	2080.067
549.435	2078.529
549.563	2069.025
549.691	2060.000
549.819	2084.176
549.947	2091.202
550.075	2067.109
550.203	2080.983
550.331	2075.773
550.460	2077.269
550.588	2076.034
550.716	2084.126
550.844	2080.336
550.972	2060.588
551.100	2072.445
551.228	2074.824
551.356	2066.706
551.485	2055.756
551.613	2057.496
551.741	2049.714
551.869	2048.151
551.997	2044.336
552.125	2056.160
552.253	2041.739
552.381	2024.471
552.510	2040.916
552.638	2035.672
552.766	2032.370
552.894	2036.445
553.022	2022.605
553.150	2023.017
553.278	2033.765
553.406	2024.017
553.535	2011.504
553.663	2021.471
553.791	2028.143
553.919	2018.664
554.047	2032.983
554.175	2016.034
554.303	2014.261
554.431	2003.042
554.560	2010.689
554.688	2034.277
554.816	2007.336
554.944	2017.622
555.072	2015.739
555.200	2010.748
555.328	2022.941
555.456	2023.950
555.585	2037.429
555.713	2027.437
555.841	2034.521
555.969	2022.462
556.097	2043.176
556.225	2036.445
556.353	2043.134
556.481	2037.798
556.610	2044.916
556.738	2063.277
556.866	2055.050
556.994	2052.966
557.122	2035.471
557.250	2063.076
557.378	2054.622
557.506	2052.933
557.635	2067.160
557.763	2073.866
557.891	2087.109
558.019	2068.714
558.147	2078.008
558.275	2072.462
558.403	2089.050
558.531	2067.092
558.660	2084.731
558.788	2076.765
558.916	2107.420
559.044	2089.160
559.172	2089.235
559.300	2106.017
559.428	2103.134
559.556	2085.387
559.685	2101.504
559.813	2094.286
559.941	2097.277
560.069	2097.395
560.197	2096.731
560.325	2098.118
560.453	2090.815
560.581	2090.874
560.710	2098.479
560.838	2097.639
560.966	2093.227
561.094	2114.782
561.222	2088.933
561.350	2093.277
561.478	2088.050
561.606	2104.899
561.735	2084.605
561.863	2090.630
561.991	2071.504
562.119	2083.513
562.247	2072.882
562.375	2077.958
562.503	2077.798
562.631	2065.756
562.760	2070.437
562.888	2078.387
563.016	2069.681
563.144	2072.160
563.272	2063.546
563.400	2063.218
563.528	2064.277
563.656	2081.092
563.785	2068.303
563.913	2076.420
564.041	2054.092
564.169	2067.034
564.297	2061.042
564.425	2074.000
564.553	2102.622
564.681	2079.983
564.810	2075.328
564.938	2076.714
565.066	2067.555
565.194	2093.269
565.322	2092.109
565.450	2085.723
565.578	2096.101
565.706	2084.244
565.835	2095.076
565.963	2092.361
566.091	2091.807
566.219	2110.672
566.347	2107.101
566.475	2099.689
566.603	2109.908
566.731	2107.681
566.860	2117.353
566.988	2110.891
567.116	2141.824
567.244	2137.706
567.372	2139.319
567.500	2140.403
567.628	2131.555
567.756	2133.202
567.885	2143.420
568.013	2168.193
568.141	2151.958
568.269	2149.714
568.397	2161.076
568.525	2163.294
568.653	2174.244
568.781	2177.151
568.910	2191.504
569.038	2186.647
569.166	2189.151
569.294	2194.756
569.422	2201.252
569.550	2181.202
569.678	2203.412
569.806	2214.311
569.935	2228.454
570.063	2215.286
570.191	2238.000
570.319	2230.025
570.447	2235.966
570.575	2225.462
570.703	2231.471
570.831	2250.353
570.960	2245.067
571.088	2251.261
571.216	2227.092
571.344	2247.429
571.472	2248.697
571.600	2270.857
571.728	2249.672
571.856	2256.866
571.985	2263.571
572.113	2278.941
572.241	2271.563
572.369	2291.756
572.497	2261.546
572.625	2280.336
572.753	2266.689
572.881	2274.992
573.010	2285.815
573.138	2306.840
573.266	2293.109
573.394	2293.345
573.522	2302.387
573.650	2300.588
573.778	2289.042
573.906	2293.420
574.035	2304.277
574.163	2323.067
574.291	2323.546
574.419	2311.992
574.547	2314.933
574.675	2334.613
574.803	2313.513
574.931	2303.227
575.060	2327.370
575.188	2328.790
575.316	2327.437
575.444	2324.807
575.572	2330.000
575.700	2311.529
575.828	2326.933
575.956	2324.529
576.085	2318.017
576.213	2328.975
576.341	2315.445
576.469	2332.143
576.597	2308.538
576.725	2323.866
576.853	2319.471
576.981	2323.773
577.110	2322.445
577.238	2340.437
577.366	2317.916
577.494	2321.882
577.622	2317.857
577.750	2307.815
577.878	2326.378
578.006	2347.857
578.135	2326.966
578.263	2324.882
578.391	2345.672
578.519	2339.613
578.647	2362.328
578.775	2328.479
578.903	2321.807
579.031	2334.218
579.160	2330.387
579.288	2328.151
579.416	2318.445
579.544	2363.748
579.672	2328.613
579.800	2339.899
579.928	2313.076
580.056	2329.983
580.185	2336.160
580.313	2344.176
580.441	2358.202
580.569	2356.790
580.697	2330.176
580.825	2358.336
580.953	2385.899
581.081	2368.840
581.210	2380.000
581.338	2369.697
581.466	2383.168
581.594	2391.126
581.722	2400.697
581.850	2387.429
581.978	2389.008
582.106	2388.681
582.235	2399.832
582.363	2389.647
582.491	2414.445
582.619	2423.067
582.747	2423.655
582.875	2417.588
583.003	2431.958
583.131	2452.101
583.260	2461.227
583.388	2456.479
583.516	2483.311
583.644	2472.849
583.772	2477.882
583.900	2485.992
584.028	2494.261
584.156	2495.908
584.285	2516.866
584.413	2500.202
584.541	2533.555
584.669	2531.807
584.797	2541.815
584.925	2542.176
585.053	2552.168
585.181	2563.445
585.310	2571.849
585.438	2566.605
585.566	2559.050
585.694	2581.605
585.822	2582.588
585.950	2587.454
586.078	2597.664
586.206	2608.143
586.335	2604.815
586.463	2636.319
586.591	2654.235
586.719	2654.252
586.847	2650.714
586.975	2647.412
587.103	2646.017
587.231	2652.824
587.360	2655.479
587.488	2653.168
587.616	2652.882
587.744	2677.697
587.872	2666.765
588.000	2675.118
588.128	2676.319
588.256	2681.958
588.385	2676.891
588.513	2689.345
588.641	2689.815
588.769	2708.697
588.897	2692.782
589.025	2709.664
589.153	2682.622
589.281	2688.412
589.410	2706.269
589.538	2714.672
589.666	2733.193
589.794	2716.647
589.922	2704.017
590.050	2730.580
590.178	2700.950
590.306	2719.185
590.435	2743.899
590.563	2742.563
590.691	2716.420
590.819	2776.008
590.947	2763.193
591.075	2754.294
591.203	2767.597
591.331	2744.034
591.460	2735.857
591.588	2780.689
591.716	2764.798
591.844	2738.832
591.972	2789.933
592.100	2776.118
592.228	2768.840
592.356	2779.277
592.485	2774.118
592.613	2772.286
592.741	2820.185
592.869	2791.034
592.997	2779.126
593.125	2784.891
593.253	2827.345
593.381	2844.445
593.510	2823.857
593.638	2824.143
593.766	2823.420
593.894	2801.303
594.022	2837.328
594.150	2840.748
594.278	2864.319
594.406	2865.487
594.535	2852.681
594.663	2860.563
594.791	2861.908
594.919	2881.664
595.047	2893.218
595.175	2912.664
595.303	2893.050
595.431	2902.882
595.560	2957.429
595.688	2921.824
595.816	2972.571
595.944	2913.303
596.072	2934.908
596.200	2930.958
596.328	2937.529
596.456	2924.345
596.585	2938.546
596.713	2938.227
596.841	2973.420
596.969	2980.748
597.097	2992.235
597.225	2981.269
597.353	2989.487
597.481	3005.143
597.610	3006.160
597.738	3042.630
597.866	3017.151
597.994	3008.815
598.122	3060.748
598.250	3074.017
598.378	3035.160
598.506	3032.555
598.635	3076.899
598.763	3034.958
598.891	3101.798
599.019	3085.101
599.147	3118.445
599.275	3055.235
599.403	3134.185
599.531	3132.244
599.660	3121.748
599.788	3109.193
599.916	3132.504
600.044	3174.008
600.172	3134.504
600.300	3162.790
600.428	3141.126
600.556	3184.445
600.685	3245.739
600.813	3185.210
600.941	3201.471
601.069	3189.042
601.197	3210.059
601.325	3216.311
601.453	3195.798
601.581	3232.412
601.710	3244.462
601.838	3228.588
601.966	3333.042
602.094	3325.151
602.222	3302.571
602.350	3266.647
602.478	3290.084
602.606	3349.563
602.735	3273.731
602.863	3339.134
602.991	3347.975
603.119	3312.445
603.247	3330.084
603.375	3355.739
603.503	3380.437
603.631	3403.261
603.760	3397.000
603.888	3414.681
604.016	3399.723
604.144	3380.059
604.272	3429.151
604.400	3447.370
604.528	3459.891
604.656	3469.000
604.785	3467.092
604.913	3527.882
605.041	3448.924
605.169	3506.655
605.297	3495.479
605.425	3502.529
605.553	3532.210
605.681	3523.891
605.810	3576.706
605.938	3542.303
606.066	3523.798
606.194	3559.361
606.322	3556.714
606.450	3570.950
606.578	3562.866
606.706	3595.933
606.835	3601.328
606.963	3654.160
607.091	3640.067
607.219	3616.445
607.347	3598.815
607.475	3637.025
607.603	3612.202
607.731	3601.454
607.860	3636.714
607.988	3621.454
608.116	3678.134
608.244	3624.319
608.372	3673.597
608.500	3667.168
608.628	3637.496
608.756	3653.261
608.885	3720.269
609.013	3655.252
609.141	3648.336
609.269	3626.034
609.397	3651.496
609.525	3687.639
609.653	3709.521
609.781	3679.429
609.910	3686.992
610.038	3769.924
610.166	3697.782
610.294	3708.739
610.422	3701.176
610.550	3679.555
610.678	3682.277
610.806	3703.807
610.935	3683.000
611.063	3720.563
611.191	3744.504
611.319	3755.067
611.447	3723.008
611.575	3733.546
611.703	3711.076
611.831	3745.126
611.960	3729.958
612.088	3741.353
612.216	3737.983
612.344	3750.000
612.472	3757.319
612.600	3768.857
612.728	3779.412
612.856	3741.546
612.985	3766.025
613.113	3790.538
613.241	3787.941
613.369	3773.076
613.497	3784.983
613.625	3792.345
613.753	3802.361
613.881	3815.597
614.010	3793.924
614.138	3847.244
614.266	3830.832
614.394	3851.672
614.522	3845.429
614.650	3841.966
614.778	3844.370
614.906	3840.975
615.035	3871.218
615.163	3852.420
615.291	3921.681
615.419	3872.504
615.547	3859.756
615.675	3880.261
615.803	3938.798
615.931	3917.655
616.060	3883.319
616.188	3916.471
616.316	3939.076
616.444	3912.000
616.572	3950.580
616.700	3980.126
616.828	3941.311
616.956	4002.966
617.085	3975.857
617.213	3977.034
617.341	4028.050
617.469	4078.681
617.597	4014.109
617.725	4008.319
617.853	4013.529
617.981	4046.210
618.110	4090.126
618.238	4072.672
618.366	4069.874
618.494	4062.857
618.622	4084.832
618.750	4154.908
618.878	4136.353
619.006	4133.101
619.135	4175.345
619.263	4136.479
619.391	4134.025
619.519	4155.176
619.647	4223.538
619.775	4196.244
619.903	4237.218
620.031	4208.050
620.160	4222.210
620.288	4262.092
620.416	4241.580
620.544	4266.067
620.672	4284.193
620.800	4310.319
620.928	4306.319
621.056	4343.899
621.185	4319.218
621.313	4298.529
621.441	4347.328
621.569	4330.605
621.697	4378.546
621.825	4424.412
621.953	4365.454
622.081	4427.361
622.210	4372.235
622.338	4420.462
622.466	4463.395
622.594	4456.798
622.722	4438.824
622.850	4489.546
622.978	4519.471
623.106	4506.353
623.235	4520.639
623.363	4552.143
623.491	4502.034
623.619	4550.244
623.747	4520.672
623.875	4588.756
624.003	4535.697
624.131	4578.689
624.260	4582.697
624.388	4546.655
624.516	4582.126
624.644	4571.252
624.772	4579.496
624.900	4576.218
625.028	4614.924
625.156	4595.588
625.285	4629.739
625.413	4665.681
625.541	4633.916
625.669	4653.378
625.797	4679.429
625.925	4666.168
626.053	4681.504
626.181	4647.622
626.310	4752.025
626.438	4669.639
626.566	4677.613
626.694	4683.748
626.822	4691.664
626.950	4731.714
627.078	4683.714
627.206	4708.731
627.335	4707.429
627.463	4712.723
627.591	4720.353
627.719	4804.975
627.847	4743.723
627.975	4760.487
628.103	4798.462
628.231	4780.908
628.360	4784.370
628.488	4781.412
628.616	4783.235
628.744	4791.723
628.872	4808.798
629.000	4812.025
629.128	4839.437
629.256	4788.227
629.385	4828.218
629.513	4810.496
629.641	4841.286
629.769	4896.790
629.897	4873.782
630.025	4844.294
630.153	4910.445
630.281	4884.420
630.410	4895.706
630.538	4861.798
630.666	4899.555
630.794	4882.269
630.922	4905.269
631.050	4894.050
631.178	4906.311
631.306	4900.538
631.435	4915.084
631.563	4944.479
631.691	4962.798
631.819	5021.042
631.947	4922.966
632.075	4907.168
632.203	4980.857
632.331	4944.101
632.460	4963.462
632.588	4960.504
632.716	4964.849
632.844	5015.479
632.972	4916.126
633.100	4954.471
633.228	4982.588
633.356	4975.874
633.485	4989.000
633.613	5005.857
633.741	5013.714
633.869	5007.067
633.997	4998.227
634.125	5058.824
634.253	5013.613
634.381	5019.034
634.510	5052.311
634.638	5047.983
634.766	5097.756
634.894	5044.689
635.022	5029.655
635.150	5029.655
635.278	5053.773
635.406	5027.563
635.535	5051.756
635.663	5069.815
635.791	5015.655
635.919	5044.597
636.047	5048.521
636.175	5067.370
636.303	5050.958
636.431	5058.521
636.560	5099.244
636.688	5058.227
636.816	5085.319
636.944	5088.109
637.072	5113.950
637.200	5093.471
637.328	5103.084
637.456	5073.992
637.585	5061.277
637.713	5103.025
637.841	5098.210
637.969	5112.605
638.097	5105.815
638.225	5093.950
638.353	5113.975
638.481	5114.790
638.610	5122.975
638.738	5130.529
638.866	5142.479
638.994	5145.017
639.122	5114.798
639.250	5142.613
639.378	5183.739
639.506	5163.076
639.635	5176.118
639.763	5138.210
639.891	5183.824
640.019	5180.126
640.147	5237.504
640.275	5157.462
640.403	5174.151
640.531	5230.513
640.660	5216.311
640.788	5278.756
640.916	5236.403
641.044	5228.933
641.172	5211.000
641.300	5269.924
641.428	5224.101
641.556	5269.025
641.685	5290.227
641.813	5271.739
641.941	5288.504
642.069	5306.034
642.197	5326.756
642.325	5326.101
642.453	5294.126
642.581	5398.168
642.710	5291.874
642.838	5349.277
642.966	5333.588
643.094	5348.370
643.222	5338.042
643.350	5345.782
643.478	5402.059
643.606	5379.412
643.735	5343.529
643.863	5382.571
643.991	5394.697
644.119	5387.555
644.247	5385.109
644.375	5388.487
644.503	5424.950
644.631	5463.067
644.760	5450.874
644.888	5453.361
645.016	5459.185
645.144	5462.151
645.272	5415.597
645.400	5464.723
645.528	5497.429
645.656	5480.092
645.785	5491.731
645.913	5526.647
646.041	5504.672
646.169	5549.378
646.297	5483.899
646.425	5519.059
646.553	5496.975
646.681	5465.134
646.810	5499.672
646.938	5470.261
647.066	5447.588
647.194	5549.429
647.322	5486.916
647.450	5481.067
647.578	5498.370
647.706	5469.521
647.835	5467.849
647.963	5532.345
648.091	5433.429
648.219	5515.832
648.347	5525.286
648.475	5472.630
648.603	5488.866
648.731	5450.286
648.860	5456.521
648.988	5458.034
649.116	5449.429
649.244	5432.378
649.372	5465.101
649.500	5446.176
649.628	5480.891
649.756	5445.084
649.885	5427.899
650.013	5403.756
650.141	5391.807
650.269	5376.168
650.397	5389.445
650.525	5349.782
650.653	5409.529
650.781	5377.815
650.910	5344.966
651.038	5311.496
651.166	5316.076
651.294	5320.143
651.422	5301.664
651.550	5267.782
651.678	5308.378
651.806	5276.218
651.935	5268.118
652.063	5287.303
652.191	5269.017
652.319	5265.882
652.447	5270.588
652.575	5214.277
652.703	5266.319
652.831	5249.336
652.960	5224.748
653.088	5231.487
653.216	5223.437
653.344	5225.143
653.472	5204.504
653.600	5201.059
653.728	5197.580
653.856	5199.084
653.985	5172.992
654.113	5156.479
654.241	5173.185
654.369	5159.992
654.497	5186.580
654.625	5169.966
654.753	5149.882
654.881	5188.076
655.010	5228.866
655.138	5156.000
655.266	5143.328
655.394	5139.975
655.522	5191.580
655.650	5103.908
655.778	5185.370
655.906	5104.613
656.035	5080.261
656.163	5106.185
656.291	5086.143
656.419	5113.017
656.547	5095.664
656.675	5090.050
