70-130-0_at_679.99nm_cut_at_1283.50Y_01.dat
24.01.2024
11:35:09
cut middle at Y: 1283.50
top cursor: 1343 down cursor: 1224 mean of: 119 lines , 2560 datapoints
wavelength(nm)	intensity[arb. units]
515.994	425.992
516.122	400.832
516.250	397.445
516.378	394.538
516.506	397.109
516.635	393.487
516.763	398.857
516.891	399.824
517.019	397.773
517.147	401.504
517.275	400.597
517.403	402.479
517.531	400.689
517.660	405.790
517.788	397.496
517.916	405.765
518.044	403.857
518.172	406.866
518.300	405.059
518.428	401.798
518.556	404.445
518.685	408.891
518.813	407.235
518.941	414.008
519.069	405.739
519.197	410.269
519.325	408.790
519.453	410.832
519.581	416.908
519.710	413.042
519.838	417.143
519.966	417.807
520.094	421.538
520.222	415.252
520.350	422.630
520.478	419.185
520.606	419.966
520.735	425.487
520.863	423.261
520.991	428.655
521.119	427.084
521.247	429.008
521.375	426.849
521.503	434.084
521.631	432.227
521.760	430.420
521.888	435.000
522.016	437.336
522.144	435.714
522.272	434.655
522.400	440.908
522.528	440.840
522.656	440.345
522.785	443.866
522.913	443.529
523.041	438.546
523.169	441.538
523.297	443.252
523.425	445.042
523.553	437.840
523.681	441.118
523.810	445.134
523.938	446.017
524.066	450.958
524.194	446.891
524.322	447.017
524.450	443.420
524.578	445.143
524.706	448.756
524.835	442.882
524.963	446.126
525.091	446.597
525.219	447.252
525.347	450.109
525.475	444.782
525.603	449.286
525.731	454.412
525.860	451.756
525.988	444.697
526.116	447.168
526.244	449.277
526.372	443.042
526.500	449.521
526.628	455.857
526.756	447.101
526.885	453.118
527.013	454.252
527.141	450.916
527.269	447.092
527.397	453.471
527.525	452.336
527.653	450.202
527.781	451.966
527.910	456.521
528.038	460.647
528.166	456.605
528.294	454.790
528.422	454.303
528.550	460.286
528.678	460.546
528.806	464.966
528.935	464.723
529.063	465.000
529.191	462.790
529.319	466.765
529.447	463.429
529.575	466.832
529.703	467.697
529.831	467.479
529.960	462.647
530.088	465.193
530.216	466.025
530.344	461.076
530.472	470.176
530.600	463.622
530.728	465.672
530.856	470.462
530.985	468.756
531.113	470.126
531.241	469.924
531.369	471.597
531.497	472.227
531.625	468.286
531.753	463.168
531.881	472.050
532.010	471.092
532.138	471.983
532.266	464.983
532.394	464.655
532.522	467.546
532.650	465.042
532.778	472.731
532.906	467.042
533.035	464.756
533.163	468.504
533.291	463.176
533.419	465.992
533.547	465.824
533.675	465.151
533.803	464.580
533.931	462.319
534.060	466.521
534.188	471.454
534.316	468.076
534.444	467.261
534.572	466.807
534.700	463.487
534.828	470.092
534.956	473.983
535.085	473.143
535.213	474.370
535.341	467.908
535.469	478.025
535.597	476.403
535.725	476.378
535.853	474.378
535.981	478.286
536.110	486.218
536.238	479.437
536.366	481.882
536.494	482.429
536.622	485.773
536.750	482.437
536.878	493.143
537.006	489.521
537.135	489.303
537.263	492.252
537.391	497.597
537.519	490.076
537.647	494.815
537.775	493.109
537.903	494.445
538.031	493.067
538.160	493.538
538.288	495.689
538.416	496.076
538.544	494.782
538.672	501.050
538.800	502.370
538.928	500.462
539.056	504.840
539.185	499.395
539.313	498.193
539.441	504.387
539.569	503.983
539.697	502.008
539.825	509.571
539.953	502.353
540.081	499.983
540.210	503.479
540.338	509.445
540.466	500.395
540.594	512.798
540.722	500.748
540.850	499.983
540.978	501.756
541.106	502.294
541.235	508.891
541.363	507.983
541.491	506.479
541.619	508.151
541.747	508.571
541.875	502.882
542.003	512.353
542.131	512.504
542.260	511.597
542.388	508.109
542.516	508.807
542.644	510.697
542.772	513.454
542.900	514.076
543.028	508.655
543.156	514.529
543.285	512.387
543.413	503.084
543.541	520.706
543.669	513.101
543.797	510.697
543.925	507.899
544.053	522.084
544.181	518.706
544.310	509.067
544.438	511.950
544.566	513.546
544.694	514.840
544.822	513.866
544.950	517.076
545.078	509.126
545.206	511.874
545.335	514.681
545.463	515.059
545.591	511.689
545.719	510.378
545.847	511.303
545.975	512.924
546.103	508.563
546.231	514.639
546.360	509.521
546.488	512.387
546.616	512.328
546.744	512.824
546.872	511.924
547.000	519.143
547.128	521.345
547.256	509.546
547.385	508.916
547.513	509.479
547.641	513.126
547.769	517.454
547.897	510.143
548.025	515.790
548.153	515.613
548.281	503.882
548.410	516.345
548.538	512.798
548.666	513.462
548.794	512.387
548.922	512.462
549.050	520.403
549.178	509.353
549.306	519.000
549.435	523.605
549.563	512.790
549.691	510.429
549.819	519.235
549.947	519.597
550.075	516.950
550.203	517.613
550.331	509.168
550.460	519.521
550.588	518.538
550.716	521.277
550.844	518.538
550.972	512.689
551.100	513.983
551.228	514.597
551.356	511.622
551.485	512.487
551.613	516.496
551.741	509.345
551.869	511.328
551.997	509.807
552.125	510.092
552.253	513.151
552.381	510.487
552.510	510.471
552.638	506.891
552.766	510.975
552.894	508.647
553.022	509.336
553.150	503.101
553.278	506.840
553.406	501.840
553.535	505.958
553.663	501.134
553.791	500.807
553.919	502.916
554.047	504.487
554.175	502.244
554.303	496.538
554.431	506.210
554.560	503.983
554.688	510.639
554.816	500.992
554.944	502.429
555.072	497.462
555.200	503.571
555.328	502.193
555.456	502.908
555.585	500.622
555.713	499.361
555.841	506.992
555.969	500.605
556.097	504.496
556.225	502.866
556.353	506.748
556.481	504.756
556.610	502.681
556.738	506.034
556.866	506.597
556.994	501.487
557.122	503.815
557.250	505.563
557.378	506.588
557.506	503.118
557.635	500.588
557.763	506.504
557.891	507.588
558.019	502.655
558.147	506.798
558.275	505.370
558.403	509.857
558.531	506.395
558.660	503.681
558.788	504.017
558.916	509.496
559.044	504.429
559.172	496.479
559.300	511.193
559.428	504.202
559.556	502.857
559.685	507.588
559.813	501.622
559.941	502.412
560.069	508.277
560.197	506.294
560.325	503.891
560.453	499.664
560.581	501.218
560.710	499.563
560.838	497.378
560.966	502.160
561.094	506.118
561.222	501.294
561.350	499.538
561.478	498.950
561.606	496.286
561.735	501.487
561.863	495.807
561.991	498.815
562.119	495.134
562.247	496.790
562.375	499.185
562.503	500.647
562.631	495.462
562.760	492.798
562.888	497.034
563.016	496.597
563.144	492.782
563.272	492.664
563.400	490.269
563.528	498.714
563.656	497.950
563.785	494.160
563.913	495.202
564.041	491.218
564.169	493.647
564.297	493.563
564.425	491.303
564.553	499.176
564.681	497.849
564.810	496.899
564.938	500.782
565.066	499.664
565.194	503.252
565.322	503.336
565.450	502.454
565.578	505.092
565.706	499.294
565.835	507.210
565.963	500.277
566.091	498.017
566.219	501.874
566.347	502.353
566.475	503.218
566.603	505.143
566.731	504.975
566.860	503.630
566.988	505.210
567.116	509.412
567.244	506.286
567.372	509.975
567.500	514.000
567.628	509.345
567.756	508.076
567.885	517.025
568.013	516.546
568.141	511.109
568.269	509.092
568.397	515.084
568.525	510.908
568.653	516.580
568.781	515.899
568.910	521.580
569.038	519.824
569.166	514.126
569.294	515.395
569.422	519.975
569.550	513.975
569.678	515.840
569.806	519.924
569.935	518.824
570.063	518.328
570.191	528.403
570.319	517.790
570.447	525.370
570.575	517.084
570.703	521.109
570.831	522.563
570.960	524.529
571.088	527.134
571.216	525.412
571.344	521.933
571.472	527.908
571.600	526.244
571.728	520.546
571.856	521.092
571.985	522.857
572.113	527.664
572.241	525.546
572.369	528.521
572.497	523.076
572.625	525.739
572.753	523.176
572.881	529.756
573.010	533.168
573.138	531.513
573.266	530.588
573.394	526.067
573.522	528.303
573.650	526.353
573.778	529.319
573.906	522.529
574.035	530.714
574.163	534.353
574.291	525.538
574.419	531.739
574.547	532.084
574.675	533.303
574.803	531.546
574.931	530.731
575.060	538.403
575.188	530.866
575.316	531.076
575.444	530.429
575.572	535.958
575.700	526.345
575.828	535.395
575.956	533.160
576.085	531.370
576.213	527.815
576.341	534.126
576.469	530.370
576.597	531.378
576.725	531.092
576.853	524.597
576.981	528.076
577.110	531.008
577.238	534.588
577.366	526.723
577.494	525.017
577.622	527.361
577.750	524.605
577.878	525.151
578.006	533.252
578.135	530.622
578.263	529.798
578.391	535.840
578.519	529.815
578.647	531.420
578.775	532.588
578.903	526.748
579.031	530.655
579.160	532.487
579.288	527.319
579.416	531.143
579.544	529.773
579.672	539.983
579.800	531.168
579.928	529.916
580.056	527.118
580.185	533.370
580.313	534.496
580.441	537.042
580.569	529.840
580.697	531.395
580.825	534.966
580.953	534.160
581.081	534.546
581.210	535.639
581.338	535.252
581.466	537.353
581.594	537.899
581.722	541.084
581.850	534.924
581.978	540.807
582.106	538.387
582.235	543.462
582.363	539.950
582.491	542.714
582.619	542.286
582.747	545.059
582.875	545.782
583.003	553.000
583.131	550.538
583.260	554.076
583.388	551.193
583.516	552.437
583.644	553.773
583.772	555.378
583.900	561.622
584.028	560.000
584.156	559.613
584.285	559.034
584.413	556.076
584.541	566.723
584.669	564.126
584.797	565.067
584.925	561.471
585.053	570.756
585.181	562.303
585.310	571.832
585.438	570.924
585.566	571.420
585.694	568.950
585.822	569.723
585.950	577.790
586.078	581.790
586.206	574.269
586.335	580.782
586.463	579.261
586.591	580.975
586.719	580.966
586.847	572.504
586.975	575.050
587.103	578.454
587.231	578.244
587.360	582.613
587.488	583.714
587.616	587.168
587.744	584.261
587.872	581.815
588.000	583.185
588.128	589.101
588.256	587.160
588.385	580.336
588.513	583.345
588.641	578.613
588.769	591.874
588.897	588.202
589.025	587.630
589.153	581.311
589.281	579.176
589.410	580.513
589.538	580.798
589.666	584.218
589.794	589.218
589.922	589.244
590.050	590.462
590.178	583.824
590.306	590.269
590.435	589.193
590.563	588.916
590.691	591.471
590.819	580.252
590.947	592.328
591.075	582.874
591.203	585.689
591.331	587.487
591.460	587.311
591.588	581.840
591.716	591.546
591.844	592.437
591.972	592.950
592.100	584.958
592.228	592.429
592.356	592.765
592.485	584.050
592.613	589.034
592.741	594.933
592.869	594.345
592.997	591.176
593.125	595.076
593.253	600.563
593.381	593.210
593.510	595.815
593.638	594.286
593.766	593.958
593.894	594.336
594.022	593.689
594.150	600.109
594.278	603.294
594.406	596.017
594.535	601.328
594.663	601.462
594.791	597.429
594.919	605.513
595.047	608.059
595.175	604.277
595.303	601.311
595.431	610.202
595.560	612.882
595.688	613.017
595.816	608.193
595.944	610.244
596.072	612.345
596.200	608.017
596.328	614.580
596.456	613.731
596.585	612.689
596.713	614.824
596.841	613.588
596.969	610.882
597.097	614.126
597.225	619.815
597.353	614.756
597.481	621.798
597.610	616.454
597.738	615.227
597.866	614.958
597.994	616.143
598.122	621.622
598.250	614.723
598.378	622.370
598.506	625.202
598.635	619.983
598.763	626.109
598.891	611.824
599.019	616.857
599.147	618.655
599.275	618.479
599.403	618.403
599.531	624.908
599.660	624.261
599.788	619.126
599.916	624.076
600.044	626.319
600.172	628.874
600.300	629.076
600.428	622.487
600.556	631.202
600.685	631.101
600.813	631.395
600.941	636.613
601.069	638.664
601.197	633.941
601.325	638.555
601.453	633.891
601.581	632.622
601.710	644.244
601.838	639.782
601.966	638.176
602.094	642.445
602.222	636.824
602.350	640.471
602.478	640.193
602.606	647.815
602.735	643.429
602.863	648.664
602.991	649.277
603.119	643.261
603.247	653.151
603.375	650.966
603.503	643.471
603.631	651.076
603.760	652.286
603.888	648.529
604.016	653.966
604.144	654.025
604.272	653.193
604.400	656.504
604.528	660.672
604.656	658.134
604.785	664.227
604.913	667.471
605.041	662.118
605.169	656.992
605.297	657.866
605.425	663.000
605.553	667.235
605.681	661.664
605.810	663.950
605.938	663.832
606.066	664.941
606.194	670.513
606.322	668.143
606.450	672.613
606.578	677.303
606.706	665.185
606.835	665.647
606.963	669.773
607.091	673.420
607.219	672.261
607.347	671.807
607.475	677.378
607.603	677.874
607.731	674.361
607.860	667.773
607.988	668.891
608.116	673.067
608.244	669.218
608.372	673.630
608.500	672.933
608.628	669.403
608.756	672.748
608.885	675.000
609.013	671.908
609.141	673.353
609.269	666.983
609.397	677.857
609.525	673.933
609.653	675.067
609.781	669.697
609.910	665.471
610.038	664.899
610.166	670.689
610.294	670.017
610.422	674.891
610.550	671.916
610.678	673.202
610.806	670.773
610.935	676.370
611.063	669.261
611.191	672.529
611.319	669.025
611.447	668.731
611.575	664.622
611.703	667.655
611.831	668.420
611.960	673.782
612.088	670.370
612.216	673.496
612.344	675.933
612.472	664.286
612.600	671.782
612.728	662.210
612.856	677.303
612.985	665.857
613.113	666.076
613.241	674.504
613.369	667.664
613.497	666.874
613.625	673.798
613.753	664.420
613.881	662.050
614.010	667.782
614.138	663.983
614.266	667.529
614.394	672.992
614.522	666.874
614.650	673.966
614.778	668.622
614.906	681.983
615.035	670.866
615.163	669.790
615.291	671.101
615.419	671.244
615.547	675.639
615.675	677.311
615.803	675.067
615.931	680.681
616.060	679.538
616.188	680.504
616.316	680.765
616.444	667.193
616.572	675.218
616.700	673.866
616.828	686.328
616.956	681.756
617.085	684.277
617.213	678.538
617.341	671.370
617.469	680.765
617.597	679.437
617.725	687.319
617.853	681.723
617.981	677.118
618.110	685.437
618.238	683.160
618.366	687.966
618.494	686.756
618.622	684.857
618.750	687.765
618.878	691.950
619.006	691.798
619.135	688.765
619.263	687.773
619.391	688.403
619.519	689.210
619.647	693.008
619.775	692.328
619.903	695.891
620.031	697.529
620.160	694.815
620.288	692.420
620.416	696.017
620.544	701.639
620.672	703.067
620.800	697.479
620.928	702.210
621.056	702.109
621.185	704.000
621.313	700.588
621.441	707.252
621.569	710.286
621.697	704.311
621.825	708.008
621.953	704.765
622.081	705.193
622.210	713.891
622.338	710.176
622.466	707.252
622.594	711.916
622.722	713.748
622.850	713.933
622.978	719.647
623.106	710.370
623.235	720.067
623.363	716.832
623.491	718.748
623.619	712.042
623.747	711.504
623.875	719.857
624.003	711.605
624.131	710.252
624.260	708.597
624.388	720.849
624.516	724.303
624.644	712.992
624.772	715.101
624.900	720.597
625.028	709.605
625.156	723.630
625.285	717.756
625.413	718.908
625.541	718.731
625.669	718.672
625.797	713.529
625.925	720.899
626.053	712.370
626.181	721.286
626.310	717.639
626.438	716.403
626.566	718.395
626.694	713.849
626.822	713.143
626.950	722.294
627.078	714.151
627.206	717.235
627.335	718.445
627.463	717.345
627.591	727.143
627.719	718.798
627.847	718.899
627.975	716.958
628.103	714.160
628.231	719.933
628.360	717.714
628.488	727.756
628.616	721.210
628.744	711.966
628.872	716.706
629.000	716.975
629.128	723.193
629.256	723.235
629.385	717.227
629.513	720.672
629.641	712.487
629.769	713.328
629.897	720.025
630.025	722.874
630.153	724.622
630.281	724.076
630.410	722.824
630.538	729.983
630.666	720.277
630.794	720.176
630.922	721.748
631.050	715.025
631.178	718.546
631.306	717.126
631.435	722.487
631.563	718.807
631.691	718.378
631.819	715.412
631.947	726.151
632.075	716.361
632.203	728.958
632.331	718.504
632.460	715.118
632.588	721.664
632.716	722.403
632.844	714.235
632.972	715.454
633.100	724.479
633.228	722.571
633.356	718.319
633.485	718.429
633.613	720.815
633.741	716.126
633.869	721.773
633.997	723.782
634.125	718.613
634.253	710.504
634.381	709.513
634.510	723.050
634.638	710.109
634.766	715.513
634.894	714.832
635.022	711.168
635.150	708.866
635.278	720.790
635.406	714.899
635.535	718.672
635.663	717.126
635.791	709.546
635.919	719.639
636.047	709.958
636.175	713.613
636.303	719.933
636.431	715.361
636.560	717.387
636.688	708.269
636.816	716.983
636.944	713.714
637.072	709.697
637.200	708.168
637.328	698.462
637.456	711.227
637.585	709.756
637.713	717.983
637.841	705.790
637.969	706.597
638.097	707.109
638.225	713.277
638.353	710.664
638.481	707.118
638.610	711.924
638.738	702.118
638.866	706.286
638.994	709.891
639.122	706.311
639.250	712.798
639.378	711.613
639.506	706.378
639.635	708.252
639.763	707.143
639.891	709.571
640.019	717.655
640.147	712.462
640.275	703.479
640.403	711.042
640.531	709.269
640.660	705.588
640.788	717.294
640.916	712.345
641.044	712.798
641.172	705.672
641.300	713.798
641.428	706.218
641.556	718.412
641.685	712.025
641.813	707.958
641.941	712.815
642.069	714.445
642.197	711.538
642.325	704.916
642.453	716.655
642.581	712.882
642.710	712.042
642.838	715.899
642.966	714.857
643.094	712.017
643.222	709.244
643.350	707.571
643.478	713.487
643.606	720.798
643.735	717.210
643.863	709.647
643.991	715.067
644.119	718.403
644.247	712.605
644.375	718.059
644.503	717.286
644.631	713.538
644.760	714.370
644.888	724.143
645.016	711.824
645.144	725.000
645.272	712.118
645.400	713.874
645.528	714.908
645.656	709.899
645.785	713.824
645.913	715.908
646.041	715.067
646.169	703.958
646.297	709.790
646.425	712.261
646.553	705.630
646.681	712.034
646.810	713.630
646.938	717.076
647.066	704.185
647.194	706.756
647.322	706.874
647.450	699.655
647.578	711.160
647.706	706.723
647.835	708.588
647.963	700.420
648.091	703.966
648.219	705.151
648.347	702.403
648.475	700.017
648.603	704.059
648.731	703.227
648.860	694.252
648.988	697.815
649.116	695.151
649.244	693.319
649.372	688.546
649.500	691.992
649.628	695.773
649.756	691.403
649.885	689.336
650.013	688.370
650.141	687.084
650.269	680.403
650.397	685.252
650.525	678.311
650.653	683.731
650.781	682.521
650.910	684.017
651.038	675.807
651.166	679.185
651.294	666.824
651.422	672.294
651.550	674.042
651.678	669.613
651.806	668.571
651.935	667.076
652.063	663.723
652.191	669.017
652.319	669.210
652.447	658.630
652.575	659.546
652.703	664.387
652.831	657.176
652.960	662.092
653.088	657.387
653.216	648.328
653.344	649.042
653.472	656.908
653.600	654.840
653.728	649.824
653.856	646.277
653.985	654.916
654.113	648.420
654.241	648.311
654.369	645.513
654.497	652.697
654.625	641.689
654.753	645.966
654.881	646.891
655.010	643.613
655.138	639.975
655.266	640.403
655.394	638.118
655.522	642.034
655.650	634.151
655.778	634.319
655.906	636.798
656.035	638.319
656.163	624.857
656.291	633.857
656.419	633.143
656.547	643.681
656.675	628.513
656.803	627.714
656.931	636.655
657.060	629.739
657.188	629.588
657.316	624.580
657.444	623.546
657.572	627.092
657.700	621.353
657.828	617.000
657.956	624.630
658.085	625.294
658.213	619.664
658.341	620.294
658.469	614.924
658.597	619.723
658.725	627.252
658.853	611.983
658.981	615.941
659.110	617.588
659.238	614.244
659.366	614.824
659.494	613.672
659.622	620.445
659.750	616.395
659.878	607.588
660.006	610.891
660.135	609.966
660.263	606.681
660.391	600.118
660.519	610.630
660.647	599.496
660.775	607.815
660.903	604.269
661.031	601.832
661.160	605.723
661.288	600.000
661.416	603.429
661.544	597.815
661.672	597.235
661.800	608.109
661.928	599.546
662.056	590.143
662.185	597.538
662.313	594.798
662.441	595.403
662.569	598.664
662.697	598.118
662.825	590.387
662.953	599.597
663.081	594.336
663.210	589.605
663.338	597.487
663.466	591.824
663.594	590.597
663.722	586.916
663.850	583.378
663.978	587.756
664.106	591.479
664.235	586.134
664.363	587.723
664.491	580.160
664.619	581.445
664.747	589.403
664.875	584.882
665.003	576.647
