70-110-0_at_679.99nm_cut_at_1283.50Y_01.dat
24.01.2024
11:32:22
cut middle at Y: 1283.50
top cursor: 1343 down cursor: 1224 mean of: 119 lines , 2560 datapoints
wavelength(nm)	intensity[arb. units]
515.994	446.958
516.122	424.840
516.250	421.874
516.378	414.832
516.506	416.756
516.635	417.311
516.763	425.286
516.891	429.445
517.019	426.992
517.147	426.319
517.275	428.210
517.403	427.739
517.531	424.975
517.660	423.345
517.788	426.429
517.916	427.782
518.044	430.639
518.172	433.756
518.300	428.857
518.428	430.462
518.556	430.227
518.685	432.059
518.813	431.992
518.941	428.521
519.069	429.689
519.197	431.017
519.325	437.857
519.453	432.874
519.581	443.008
519.710	434.571
519.838	441.966
519.966	438.202
520.094	438.269
520.222	442.412
520.350	444.958
520.478	444.840
520.606	445.958
520.735	442.849
520.863	447.924
520.991	452.437
521.119	444.420
521.247	452.731
521.375	450.866
521.503	451.034
521.631	456.092
521.760	453.370
521.888	458.134
522.016	456.933
522.144	455.319
522.272	458.370
522.400	458.689
522.528	463.571
522.656	463.370
522.785	465.714
522.913	460.529
523.041	458.613
523.169	464.361
523.297	464.681
523.425	465.185
523.553	464.168
523.681	467.025
523.810	466.504
523.938	472.412
524.066	469.454
524.194	475.160
524.322	469.790
524.450	467.992
524.578	472.471
524.706	472.311
524.835	467.496
524.963	477.992
525.091	470.084
525.219	474.353
525.347	472.050
525.475	468.824
525.603	470.622
525.731	470.471
525.860	476.370
525.988	466.479
526.116	470.916
526.244	475.706
526.372	466.908
526.500	472.025
526.628	474.798
526.756	470.395
526.885	475.563
527.013	471.882
527.141	475.134
527.269	471.538
527.397	476.933
527.525	477.134
527.653	477.529
527.781	470.471
527.910	478.176
528.038	478.513
528.166	477.857
528.294	478.941
528.422	476.689
528.550	476.966
528.678	481.798
528.806	481.866
528.935	483.361
529.063	479.151
529.191	478.227
529.319	481.328
529.447	485.798
529.575	486.672
529.703	485.403
529.831	482.429
529.960	483.857
530.088	491.370
530.216	491.866
530.344	477.202
530.472	478.866
530.600	488.143
530.728	488.580
530.856	490.958
530.985	485.588
531.113	486.513
531.241	490.874
531.369	495.647
531.497	487.933
531.625	486.160
531.753	489.462
531.881	488.563
532.010	487.319
532.138	489.420
532.266	482.605
532.394	486.807
532.522	478.647
532.650	490.739
532.778	492.218
532.906	487.496
533.035	489.908
533.163	486.630
533.291	485.571
533.419	487.336
533.547	484.294
533.675	486.521
533.803	481.118
533.931	483.000
534.060	487.992
534.188	483.672
534.316	490.151
534.444	484.193
534.572	486.891
534.700	489.345
534.828	490.882
534.956	490.361
535.085	489.571
535.213	491.101
535.341	491.277
535.469	488.723
535.597	495.496
535.725	492.345
535.853	492.319
535.981	500.748
536.110	500.403
536.238	499.857
536.366	503.731
536.494	499.664
536.622	503.731
536.750	502.857
536.878	502.849
537.006	508.412
537.135	507.496
537.263	505.765
537.391	513.437
537.519	505.664
537.647	510.563
537.775	509.571
537.903	513.395
538.031	510.403
538.160	514.076
538.288	511.529
538.416	514.681
538.544	512.193
538.672	521.840
538.800	517.067
538.928	519.605
539.056	518.042
539.185	517.445
539.313	513.815
539.441	516.571
539.569	524.294
539.697	520.655
539.825	521.899
539.953	519.412
540.081	516.924
540.210	517.513
540.338	523.076
540.466	523.050
540.594	521.210
540.722	513.336
540.850	521.807
540.978	520.714
541.106	517.605
541.235	528.160
541.363	520.378
541.491	520.765
541.619	519.773
541.747	522.336
541.875	518.227
542.003	525.185
542.131	518.269
542.260	520.555
542.388	522.941
542.516	522.151
542.644	519.613
542.772	518.353
542.900	523.773
543.028	523.924
543.156	524.882
543.285	528.134
543.413	527.235
543.541	526.050
543.669	529.378
543.797	528.647
543.925	524.269
544.053	529.975
544.181	528.639
544.310	526.076
544.438	525.765
544.566	526.109
544.694	528.277
544.822	527.235
544.950	525.160
545.078	522.143
545.206	526.958
545.335	522.840
545.463	521.521
545.591	524.681
545.719	528.445
545.847	525.639
545.975	527.008
546.103	524.092
546.231	524.798
546.360	526.471
546.488	527.874
546.616	526.513
546.744	525.588
546.872	522.361
547.000	526.420
547.128	526.815
547.256	521.555
547.385	517.227
547.513	520.109
547.641	522.966
547.769	523.193
547.897	521.235
548.025	521.639
548.153	520.227
548.281	515.017
548.410	524.815
548.538	522.689
548.666	527.176
548.794	522.924
548.922	524.672
549.050	525.613
549.178	525.168
549.306	532.092
549.435	532.126
549.563	525.597
549.691	524.176
549.819	528.857
549.947	523.395
550.075	527.622
550.203	525.992
550.331	526.227
550.460	526.008
550.588	530.311
550.716	528.992
550.844	524.235
550.972	521.210
551.100	525.210
551.228	531.151
551.356	526.109
551.485	528.286
551.613	525.807
551.741	521.723
551.869	518.605
551.997	517.395
552.125	523.227
552.253	528.244
552.381	520.723
552.510	517.429
552.638	520.597
552.766	521.025
552.894	522.387
553.022	520.311
553.150	516.647
553.278	516.555
553.406	514.714
553.535	513.639
553.663	509.412
553.791	509.807
553.919	511.697
554.047	513.000
554.175	512.437
554.303	515.034
554.431	508.479
554.560	513.748
554.688	512.756
554.816	515.513
554.944	505.143
555.072	510.151
555.200	512.874
555.328	509.378
555.456	515.151
555.585	511.437
555.713	510.261
555.841	513.050
555.969	509.303
556.097	514.067
556.225	510.235
556.353	505.471
556.481	512.261
556.610	518.874
556.738	511.025
556.866	517.891
556.994	512.992
557.122	514.109
557.250	517.042
557.378	515.546
557.506	512.597
557.635	511.966
557.763	514.412
557.891	521.034
558.019	511.261
558.147	513.303
558.275	513.689
558.403	518.924
558.531	512.118
558.660	512.269
558.788	513.261
558.916	520.798
559.044	516.277
559.172	512.437
559.300	517.328
559.428	513.286
559.556	513.143
559.685	515.681
559.813	513.496
559.941	510.538
560.069	518.303
560.197	509.387
560.325	515.866
560.453	508.218
560.581	513.798
560.710	517.109
560.838	512.067
560.966	516.504
561.094	518.134
561.222	511.563
561.350	511.008
561.478	505.824
561.606	511.798
561.735	513.798
561.863	504.059
561.991	512.345
562.119	509.966
562.247	509.630
562.375	511.008
562.503	512.160
562.631	506.958
562.760	504.538
562.888	513.916
563.016	506.462
563.144	501.235
563.272	505.941
563.400	503.118
563.528	506.798
563.656	510.252
563.785	504.059
563.913	502.882
564.041	506.076
564.169	507.765
564.297	508.866
564.425	506.109
564.553	512.261
564.681	508.319
564.810	506.017
564.938	509.966
565.066	508.454
565.194	512.378
565.322	515.160
565.450	512.731
565.578	511.882
565.706	510.084
565.835	510.462
565.963	508.395
566.091	512.983
566.219	515.664
566.347	514.521
566.475	515.504
566.603	516.891
566.731	520.731
566.860	519.697
566.988	518.916
567.116	518.017
567.244	517.437
567.372	515.176
567.500	521.840
567.628	520.613
567.756	523.555
567.885	520.008
568.013	531.345
568.141	530.387
568.269	527.286
568.397	526.840
568.525	524.874
568.653	529.050
568.781	525.042
568.910	529.538
569.038	526.437
569.166	525.311
569.294	533.303
569.422	531.639
569.550	528.034
569.678	535.546
569.806	535.109
569.935	531.866
570.063	537.563
570.191	534.672
570.319	536.538
570.447	532.143
570.575	532.462
570.703	532.706
570.831	543.134
570.960	535.462
571.088	539.235
571.216	537.874
571.344	535.235
571.472	541.840
571.600	540.756
571.728	540.958
571.856	538.798
571.985	547.479
572.113	540.252
572.241	536.319
572.369	547.933
572.497	540.521
572.625	541.437
572.753	544.059
572.881	539.790
573.010	547.630
573.138	551.336
573.266	550.487
573.394	549.017
573.522	546.756
573.650	548.445
573.778	544.807
573.906	546.185
574.035	543.874
574.163	547.294
574.291	548.412
574.419	546.008
574.547	548.513
574.675	551.067
574.803	547.067
574.931	545.319
575.060	552.748
575.188	553.655
575.316	553.025
575.444	549.807
575.572	551.655
575.700	542.815
575.828	557.059
575.956	557.160
576.085	553.361
576.213	552.689
576.341	546.546
576.469	548.588
576.597	549.992
576.725	548.983
576.853	548.319
576.981	553.185
577.110	547.370
577.238	559.882
577.366	550.555
577.494	547.244
577.622	547.025
577.750	549.756
577.878	549.160
578.006	555.639
578.135	551.891
578.263	551.185
578.391	560.756
578.519	552.042
578.647	556.378
578.775	557.681
578.903	549.807
579.031	554.899
579.160	556.546
579.288	547.639
579.416	554.042
579.544	554.723
579.672	561.328
579.800	559.588
579.928	550.798
580.056	559.151
580.185	554.294
580.313	559.034
580.441	559.303
580.569	557.034
580.697	554.202
580.825	562.513
580.953	559.303
581.081	572.210
581.210	566.513
581.338	568.849
581.466	568.126
581.594	574.429
581.722	563.857
581.850	564.840
581.978	568.899
582.106	572.378
582.235	568.067
582.363	567.387
582.491	574.697
582.619	571.059
582.747	581.050
582.875	578.874
583.003	582.555
583.131	577.336
583.260	581.639
583.388	584.345
583.516	589.571
583.644	586.563
583.772	586.118
583.900	590.773
584.028	590.378
584.156	585.950
584.285	590.370
584.413	594.387
584.541	599.706
584.669	594.504
584.797	596.546
584.925	599.387
585.053	600.950
585.181	597.739
585.310	605.403
585.438	600.471
585.566	605.328
585.694	608.252
585.822	612.008
585.950	611.908
586.078	606.697
586.206	613.639
586.335	618.571
586.463	612.252
586.591	618.471
586.719	611.345
586.847	616.933
586.975	621.992
587.103	617.857
587.231	616.420
587.360	619.849
587.488	630.025
587.616	621.361
587.744	625.403
587.872	619.739
588.000	621.303
588.128	630.151
588.256	628.151
588.385	626.731
588.513	628.227
588.641	627.059
588.769	633.277
588.897	629.244
589.025	627.134
589.153	624.395
589.281	626.815
589.410	634.311
589.538	628.714
589.666	633.000
589.794	638.370
589.922	635.336
590.050	642.244
590.178	624.765
590.306	636.387
590.435	633.588
590.563	632.412
590.691	632.420
590.819	634.361
590.947	645.193
591.075	631.521
591.203	633.639
591.331	643.697
591.460	645.739
591.588	637.882
591.716	650.832
591.844	640.479
591.972	653.992
592.100	641.941
592.228	641.328
592.356	644.042
592.485	642.059
592.613	644.807
592.741	649.924
592.869	651.975
592.997	650.395
593.125	648.151
593.253	653.244
593.381	642.950
593.510	654.790
593.638	655.723
593.766	654.613
593.894	651.605
594.022	652.773
594.150	654.546
594.278	657.639
594.406	659.496
594.535	660.672
594.663	660.983
594.791	659.689
594.919	659.319
595.047	668.345
595.175	666.992
595.303	663.118
595.431	667.756
595.560	672.891
595.688	665.798
595.816	664.412
595.944	681.462
596.072	676.613
596.200	677.588
596.328	673.403
596.456	673.899
596.585	683.613
596.713	683.395
596.841	684.437
596.969	682.353
597.097	685.664
597.225	687.782
597.353	690.395
597.481	683.622
597.610	690.563
597.738	688.866
597.866	682.437
597.994	689.336
598.122	693.160
598.250	691.807
598.378	695.050
598.506	691.000
598.635	685.782
598.763	694.076
598.891	694.227
599.019	703.504
599.147	699.563
599.275	693.454
599.403	698.941
599.531	699.714
599.660	704.361
599.788	703.160
599.916	703.571
600.044	703.218
600.172	705.908
600.300	711.126
600.428	705.513
600.556	708.092
600.685	719.706
600.813	713.017
600.941	721.000
601.069	719.840
601.197	722.849
601.325	716.714
601.453	723.202
601.581	727.580
601.710	724.412
601.838	728.798
601.966	720.840
602.094	730.462
602.222	730.244
602.350	732.908
602.478	726.168
602.606	739.882
602.735	738.076
602.863	737.672
602.991	746.639
603.119	749.672
603.247	742.941
603.375	741.689
603.503	742.647
603.631	753.908
603.760	750.504
603.888	756.563
604.016	752.000
604.144	751.563
604.272	758.008
604.400	763.555
604.528	758.185
604.656	761.193
604.785	765.899
604.913	773.655
605.041	767.160
605.169	769.597
605.297	764.908
605.425	765.395
605.553	773.697
605.681	762.857
605.810	773.765
605.938	779.521
606.066	776.185
606.194	782.538
606.322	777.731
606.450	782.815
606.578	789.084
606.706	788.832
606.835	782.387
606.963	787.479
607.091	795.672
607.219	790.319
607.347	785.580
607.475	790.916
607.603	793.933
607.731	795.185
607.860	776.706
607.988	793.782
608.116	790.529
608.244	796.429
608.372	785.059
608.500	798.479
608.628	794.193
608.756	797.059
608.885	793.311
609.013	798.025
609.141	793.958
609.269	797.101
609.397	801.613
609.525	804.739
609.653	800.252
609.781	802.983
609.910	803.429
610.038	801.664
610.166	802.092
610.294	810.908
610.422	799.580
610.550	803.042
610.678	799.319
610.806	806.521
610.935	805.126
611.063	804.395
611.191	803.630
611.319	809.538
611.447	809.672
611.575	801.487
611.703	800.092
611.831	807.395
611.960	815.487
612.088	806.403
612.216	809.403
612.344	813.235
612.472	810.252
612.600	816.000
612.728	814.261
612.856	820.084
612.985	813.840
613.113	808.143
613.241	817.269
613.369	822.412
613.497	815.849
613.625	823.613
613.753	819.269
613.881	820.387
614.010	825.908
614.138	823.143
614.266	819.504
614.394	816.622
614.522	817.328
614.650	827.218
614.778	828.076
614.906	825.193
615.035	820.160
615.163	824.134
615.291	833.714
615.419	830.269
615.547	822.143
615.675	838.193
615.803	825.983
615.931	839.261
616.060	836.454
616.188	837.252
616.316	835.319
616.444	837.328
616.572	842.958
616.700	838.235
616.828	854.714
616.956	856.185
617.085	857.160
617.213	857.681
617.341	846.437
617.469	860.109
617.597	857.403
617.725	863.025
617.853	855.731
617.981	854.244
618.110	860.109
618.238	856.454
618.366	873.277
618.494	875.983
618.622	874.840
618.750	873.882
618.878	869.000
619.006	873.513
619.135	880.639
619.263	876.983
619.391	876.109
619.519	883.218
619.647	886.882
619.775	884.748
619.903	889.563
620.031	890.185
620.160	891.244
620.288	888.034
620.416	900.252
620.544	903.706
620.672	897.185
620.800	903.571
620.928	905.681
621.056	906.345
621.185	906.353
621.313	902.958
621.441	920.975
621.569	921.756
621.697	920.613
621.825	921.168
621.953	931.151
622.081	930.227
622.210	925.613
622.338	928.891
622.466	928.118
622.594	938.647
622.722	930.714
622.850	933.857
622.978	940.824
623.106	931.613
623.235	946.664
623.363	943.739
623.491	947.731
623.619	937.294
623.747	949.050
623.875	946.336
624.003	942.555
624.131	951.857
624.260	943.092
624.388	951.185
624.516	960.059
624.644	957.303
624.772	958.605
624.900	954.773
625.028	955.008
625.156	972.244
625.285	955.420
625.413	964.151
625.541	965.059
625.669	971.798
625.797	958.908
625.925	965.034
626.053	961.008
626.181	968.496
626.310	973.319
626.438	973.429
626.566	969.042
626.694	972.815
626.822	974.924
626.950	980.538
627.078	974.445
627.206	971.084
627.335	985.983
627.463	980.345
627.591	986.353
627.719	980.277
627.847	991.067
627.975	1000.815
628.103	984.723
628.231	992.714
628.360	985.454
628.488	987.479
628.616	992.294
628.744	990.109
628.872	992.084
629.000	997.059
629.128	998.437
629.256	1011.950
629.385	1000.958
629.513	997.899
629.641	1002.176
629.769	1000.042
629.897	1001.008
630.025	996.798
630.153	1019.277
630.281	1011.950
630.410	1009.126
630.538	1019.227
630.666	1015.395
630.794	1017.639
630.922	1009.966
631.050	1009.908
631.178	1012.891
631.306	1013.277
631.435	1017.563
631.563	1026.563
631.691	1007.857
631.819	1023.824
631.947	1023.840
632.075	1018.874
632.203	1026.395
632.331	1020.765
632.460	1022.017
632.588	1032.429
632.716	1025.697
632.844	1025.059
632.972	1025.504
633.100	1039.899
633.228	1033.756
633.356	1033.286
633.485	1033.479
633.613	1036.840
633.741	1031.622
633.869	1033.748
633.997	1041.555
634.125	1037.084
634.253	1030.378
634.381	1029.109
634.510	1038.580
634.638	1036.529
634.766	1035.891
634.894	1037.521
635.022	1034.630
635.150	1037.908
635.278	1051.034
635.406	1045.134
635.535	1048.739
635.663	1048.958
635.791	1046.050
635.919	1052.597
636.047	1049.916
636.175	1036.008
636.303	1045.672
636.431	1053.622
636.560	1049.992
636.688	1048.370
636.816	1043.681
636.944	1050.597
637.072	1063.714
637.200	1053.479
637.328	1048.824
637.456	1055.429
637.585	1068.244
637.713	1061.143
637.841	1059.773
637.969	1058.756
638.097	1047.941
638.225	1055.731
638.353	1069.832
638.481	1065.462
638.610	1067.109
638.738	1063.773
638.866	1056.605
638.994	1063.160
639.122	1064.504
639.250	1072.874
639.378	1064.235
639.506	1065.874
639.635	1064.731
639.763	1066.588
639.891	1076.765
640.019	1079.168
640.147	1077.084
640.275	1072.605
640.403	1074.185
640.531	1083.076
640.660	1080.840
640.788	1088.521
640.916	1084.908
641.044	1094.790
641.172	1085.765
641.300	1091.143
641.428	1098.403
641.556	1091.992
641.685	1094.790
641.813	1089.504
641.941	1095.807
642.069	1098.471
642.197	1096.807
642.325	1091.807
642.453	1099.059
642.581	1107.067
642.710	1100.933
642.838	1112.235
642.966	1101.824
643.094	1113.084
643.222	1110.622
643.350	1111.454
643.478	1116.908
643.606	1121.134
643.735	1113.992
643.863	1103.588
643.991	1124.227
644.119	1117.328
644.247	1120.387
644.375	1116.067
644.503	1135.504
644.631	1129.630
644.760	1128.084
644.888	1137.630
645.016	1139.529
645.144	1143.000
645.272	1130.000
645.400	1130.328
645.528	1142.126
645.656	1128.975
645.785	1137.849
645.913	1145.294
646.041	1156.160
646.169	1125.160
646.297	1142.185
646.425	1139.336
646.553	1134.748
646.681	1144.445
646.810	1135.202
646.938	1145.513
647.066	1138.815
647.194	1136.017
647.322	1139.933
647.450	1138.849
647.578	1144.681
647.706	1142.168
647.835	1142.000
647.963	1141.529
648.091	1150.824
648.219	1135.185
648.347	1142.370
648.475	1151.975
648.603	1151.639
648.731	1146.244
648.860	1134.218
648.988	1149.084
649.116	1136.395
649.244	1136.294
649.372	1140.664
649.500	1134.958
649.628	1146.261
649.756	1139.076
649.885	1130.832
650.013	1136.328
650.141	1131.059
650.269	1130.714
650.397	1140.437
650.525	1131.168
650.653	1128.050
650.781	1126.210
650.910	1121.672
651.038	1122.143
651.166	1123.882
651.294	1118.202
651.422	1115.529
651.550	1118.975
651.678	1111.311
651.806	1115.723
651.935	1121.294
652.063	1112.916
652.191	1110.790
652.319	1115.303
652.447	1107.160
652.575	1101.824
652.703	1093.807
652.831	1103.269
652.960	1103.504
653.088	1092.815
653.216	1093.261
653.344	1096.025
653.472	1108.630
653.600	1096.303
653.728	1094.101
653.856	1088.244
653.985	1102.345
654.113	1099.328
654.241	1103.471
654.369	1087.126
654.497	1107.034
654.625	1098.588
654.753	1092.714
654.881	1090.067
655.010	1098.504
655.138	1094.630
655.266	1095.403
655.394	1079.832
655.522	1082.387
655.650	1082.630
655.778	1087.714
655.906	1084.235
656.035	1087.882
656.163	1079.891
656.291	1092.723
656.419	1080.571
656.547	1085.395
656.675	1073.748
656.803	1087.176
656.931	1085.824
657.060	1077.261
657.188	1079.975
657.316	1082.479
657.444	1086.840
657.572	1083.353
657.700	1086.471
657.828	1074.143
657.956	1079.941
658.085	1085.857
658.213	1074.496
658.341	1074.025
658.469	1075.378
658.597	1080.908
658.725	1085.807
658.853	1080.126
658.981	1073.101
659.110	1079.361
659.238	1082.958
659.366	1080.042
659.494	1068.546
659.622	1075.571
659.750	1078.849
659.878	1078.471
660.006	1079.294
660.135	1077.210
660.263	1067.479
660.391	1065.210
660.519	1066.328
660.647	1070.958
660.775	1073.597
660.903	1061.798
661.031	1063.916
661.160	1069.151
661.288	1072.504
661.416	1073.647
661.544	1071.261
661.672	1069.899
661.800	1070.731
661.928	1065.076
662.056	1058.076
662.185	1058.008
662.313	1058.664
662.441	1064.714
662.569	1065.782
662.697	1067.630
662.825	1063.588
662.953	1064.815
