70-110-unpol_at_679.99nm_cut_at_1283.50Y_01.dat
24.01.2024
11:32:40
cut middle at Y: 1283.50
top cursor: 1343 down cursor: 1224 mean of: 119 lines , 2560 datapoints
wavelength(nm)	intensity[arb. units]
515.994	1407.479
516.122	1330.513
516.250	1316.445
516.378	1307.092
516.506	1301.756
516.635	1314.513
516.763	1321.748
516.891	1332.815
517.019	1328.126
517.147	1325.597
517.275	1332.529
517.403	1336.908
517.531	1323.899
517.660	1318.622
517.788	1327.336
517.916	1339.681
518.044	1334.529
518.172	1332.899
518.300	1336.815
518.428	1330.193
518.556	1344.076
518.685	1341.613
518.813	1341.697
518.941	1350.034
519.069	1346.513
519.197	1338.244
519.325	1364.739
519.453	1344.176
519.581	1365.765
519.710	1352.286
519.838	1369.109
519.966	1364.832
520.094	1372.462
520.222	1365.748
520.350	1389.143
520.478	1382.824
520.606	1388.084
520.735	1371.412
520.863	1395.000
520.991	1407.076
521.119	1393.840
521.247	1405.723
521.375	1414.126
521.503	1420.160
521.631	1421.210
521.760	1422.092
521.888	1421.168
522.016	1422.723
522.144	1431.849
522.272	1443.782
522.400	1440.353
522.528	1448.782
522.656	1437.807
522.785	1450.866
522.913	1454.924
523.041	1450.017
523.169	1443.118
523.297	1454.647
523.425	1459.202
523.553	1452.218
523.681	1454.193
523.810	1459.782
523.938	1470.731
524.066	1458.899
524.194	1466.681
524.322	1468.496
524.450	1468.731
524.578	1466.042
524.706	1476.588
524.835	1461.168
524.963	1474.882
525.091	1462.597
525.219	1467.462
525.347	1453.328
525.475	1462.454
525.603	1473.134
525.731	1473.857
525.860	1474.807
525.988	1460.655
526.116	1472.227
526.244	1490.151
526.372	1462.000
526.500	1472.151
526.628	1490.916
526.756	1471.563
526.885	1474.185
527.013	1473.521
527.141	1478.420
527.269	1480.454
527.397	1487.403
527.525	1486.966
527.653	1467.017
527.781	1481.445
527.910	1500.899
528.038	1489.874
528.166	1500.345
528.294	1487.151
528.422	1494.941
528.550	1499.042
528.678	1500.370
528.806	1502.555
528.935	1513.824
529.063	1497.597
529.191	1513.370
529.319	1509.857
529.447	1516.639
529.575	1525.815
529.703	1522.689
529.831	1531.092
529.960	1528.487
530.088	1535.277
530.216	1542.723
530.344	1535.815
530.472	1537.496
530.600	1541.933
530.728	1537.445
530.856	1544.261
530.985	1538.630
531.113	1530.277
531.241	1535.916
531.369	1547.739
531.497	1547.319
531.625	1542.378
531.753	1549.294
531.881	1555.664
532.010	1546.378
532.138	1549.588
532.266	1532.563
532.394	1546.605
532.522	1531.378
532.650	1546.605
532.778	1542.815
532.906	1529.277
533.035	1542.176
533.163	1538.815
533.291	1538.084
533.419	1531.613
533.547	1526.126
533.675	1534.891
533.803	1524.420
533.931	1530.160
534.060	1539.731
534.188	1538.395
534.316	1542.487
534.444	1523.714
534.572	1534.378
534.700	1539.050
534.828	1536.034
534.956	1555.202
535.085	1540.008
535.213	1560.605
535.341	1559.294
535.469	1550.487
535.597	1563.521
535.725	1567.261
535.853	1569.235
535.981	1560.210
536.110	1573.193
536.238	1588.672
536.366	1587.235
536.494	1583.992
536.622	1608.185
536.750	1592.378
536.878	1596.580
537.006	1623.513
537.135	1617.059
537.263	1618.126
537.391	1616.782
537.519	1616.008
537.647	1621.235
537.775	1620.143
537.903	1633.513
538.031	1628.899
538.160	1630.916
538.288	1646.353
538.416	1643.891
538.544	1639.496
538.672	1645.101
538.800	1646.261
538.928	1647.605
539.056	1665.361
539.185	1668.815
539.313	1641.908
539.441	1658.975
539.569	1671.941
539.697	1659.387
539.825	1661.017
539.953	1675.840
540.081	1651.000
540.210	1664.983
540.338	1661.034
540.466	1658.748
540.594	1666.714
540.722	1657.176
540.850	1678.126
540.978	1667.244
541.106	1666.235
541.235	1673.706
541.363	1667.706
541.491	1668.345
541.619	1660.597
541.747	1663.361
541.875	1664.840
542.003	1670.378
542.131	1675.513
542.260	1679.824
542.388	1680.084
542.516	1677.899
542.644	1666.193
542.772	1672.025
542.900	1671.723
543.028	1677.756
543.156	1680.303
543.285	1678.941
543.413	1684.874
543.541	1686.185
543.669	1685.832
543.797	1679.370
543.925	1685.370
544.053	1688.756
544.181	1694.487
544.310	1691.773
544.438	1689.042
544.566	1693.387
544.694	1699.462
544.822	1696.336
544.950	1693.765
545.078	1687.950
545.206	1686.697
545.335	1701.555
545.463	1687.218
545.591	1692.908
545.719	1705.815
545.847	1703.681
545.975	1701.370
546.103	1693.328
546.231	1705.950
546.360	1695.882
546.488	1710.664
546.616	1704.504
546.744	1719.857
546.872	1707.277
547.000	1709.739
547.128	1705.748
547.256	1715.782
547.385	1698.941
547.513	1704.588
547.641	1710.387
547.769	1719.731
547.897	1720.471
548.025	1717.824
548.153	1726.756
548.281	1711.882
548.410	1721.227
548.538	1729.739
548.666	1720.227
548.794	1710.807
548.922	1710.866
549.050	1726.235
549.178	1724.496
549.306	1728.588
549.435	1724.286
549.563	1715.143
549.691	1729.681
549.819	1737.840
549.947	1737.235
550.075	1729.672
550.203	1733.975
550.331	1728.328
550.460	1726.412
550.588	1710.807
550.716	1741.681
550.844	1733.059
550.972	1718.739
551.100	1727.294
551.228	1731.555
551.356	1723.109
551.485	1720.059
551.613	1704.916
551.741	1700.311
551.869	1711.639
551.997	1707.983
552.125	1710.857
552.253	1710.252
552.381	1690.748
552.510	1702.294
552.638	1698.496
552.766	1709.622
552.894	1695.723
553.022	1693.059
553.150	1686.303
553.278	1689.849
553.406	1692.210
553.535	1687.840
553.663	1681.387
553.791	1684.345
553.919	1693.571
554.047	1694.630
554.175	1688.395
554.303	1671.202
554.431	1678.361
554.560	1688.487
554.688	1697.857
554.816	1681.916
554.944	1690.429
555.072	1686.101
555.200	1687.630
555.328	1679.950
555.456	1689.025
555.585	1692.664
555.713	1686.958
555.841	1696.580
555.969	1685.336
556.097	1697.975
556.225	1695.546
556.353	1705.067
556.481	1700.454
556.610	1716.345
556.738	1713.151
556.866	1717.025
556.994	1705.563
557.122	1719.697
557.250	1706.126
557.378	1716.462
557.506	1728.874
557.635	1725.546
557.763	1718.210
557.891	1736.025
558.019	1729.462
558.147	1726.832
558.275	1741.328
558.403	1743.756
558.531	1735.689
558.660	1741.479
558.788	1735.244
558.916	1742.454
559.044	1722.882
559.172	1733.168
559.300	1759.143
559.428	1743.429
559.556	1765.319
559.685	1747.924
559.813	1744.286
559.941	1759.538
560.069	1750.042
560.197	1751.244
560.325	1766.395
560.453	1758.807
560.581	1756.437
560.710	1755.555
560.838	1745.924
560.966	1756.790
561.094	1766.689
561.222	1754.395
561.350	1763.471
561.478	1741.664
561.606	1764.563
561.735	1739.034
561.863	1750.521
561.991	1741.429
562.119	1745.681
562.247	1738.387
562.375	1748.378
562.503	1741.437
562.631	1741.118
562.760	1746.387
562.888	1730.429
563.016	1733.294
563.144	1750.773
563.272	1739.487
563.400	1731.555
563.528	1725.403
563.656	1751.622
563.785	1743.891
563.913	1744.580
564.041	1723.185
564.169	1735.891
564.297	1735.092
564.425	1722.151
564.553	1759.655
564.681	1754.773
564.810	1735.193
564.938	1752.412
565.066	1740.689
565.194	1755.261
565.322	1754.605
565.450	1757.454
565.578	1772.378
565.706	1753.748
565.835	1758.017
565.963	1763.479
566.091	1754.025
566.219	1774.008
566.347	1778.563
566.475	1764.513
566.603	1764.672
566.731	1779.790
566.860	1782.118
566.988	1777.849
567.116	1804.882
567.244	1794.924
567.372	1795.899
567.500	1804.429
567.628	1790.605
567.756	1802.714
567.885	1815.630
568.013	1813.731
568.141	1823.202
568.269	1815.235
568.397	1810.395
568.525	1819.050
568.653	1838.395
568.781	1828.782
568.910	1859.571
569.038	1844.126
569.166	1846.143
569.294	1846.185
569.422	1849.151
569.550	1839.933
569.678	1857.832
569.806	1864.311
569.935	1877.025
570.063	1885.622
570.191	1873.664
570.319	1883.345
570.447	1876.950
570.575	1872.025
570.703	1902.924
570.831	1892.807
570.960	1893.664
571.088	1901.269
571.216	1903.168
571.344	1904.303
571.472	1901.832
571.600	1920.303
571.728	1911.420
571.856	1910.336
571.985	1923.454
572.113	1924.983
572.241	1920.765
572.369	1941.891
572.497	1929.655
572.625	1944.218
572.753	1925.076
572.881	1940.538
573.010	1938.034
573.138	1963.672
573.266	1946.538
573.394	1960.756
573.522	1962.840
573.650	1951.706
573.778	1959.101
573.906	1950.126
574.035	1970.807
574.163	1969.176
574.291	1966.176
574.419	1965.151
574.547	1972.210
574.675	1976.782
574.803	1983.168
574.931	1956.840
575.060	1984.244
575.188	1979.672
575.316	1978.538
575.444	1972.647
575.572	1980.924
575.700	1968.874
575.828	1981.958
575.956	1986.496
576.085	1974.336
576.213	1995.353
576.341	1983.891
576.469	1991.092
576.597	1979.429
576.725	1979.630
576.853	1974.832
576.981	1983.731
577.110	1990.168
577.238	2020.773
577.366	1993.496
577.494	1977.723
577.622	1982.395
577.750	1989.143
577.878	1987.840
578.006	1997.950
578.135	1992.420
578.263	1983.874
578.391	2016.235
578.519	2002.782
578.647	2008.748
578.775	1986.042
578.903	1981.882
579.031	2009.933
579.160	2006.092
579.288	2000.798
579.416	1996.857
579.544	2014.824
579.672	2007.639
579.800	2014.899
579.928	1994.571
580.056	1996.387
580.185	2016.328
580.313	2026.227
580.441	2036.655
580.569	2012.513
580.697	2018.294
580.825	2027.059
580.953	2040.277
581.081	2041.034
581.210	2035.345
581.338	2046.303
581.466	2048.050
581.594	2064.891
581.722	2048.210
581.850	2040.992
581.978	2061.891
582.106	2067.546
582.235	2082.790
582.363	2066.017
582.491	2075.605
582.619	2079.647
582.747	2098.126
582.875	2091.798
583.003	2100.714
583.131	2113.941
583.260	2115.689
583.388	2122.319
583.516	2142.227
583.644	2121.899
583.772	2138.597
583.900	2156.899
584.028	2165.908
584.156	2155.412
584.285	2172.866
584.413	2164.756
584.541	2199.109
584.669	2187.176
584.797	2199.008
584.925	2194.647
585.053	2212.580
585.181	2212.832
585.310	2220.008
585.438	2223.824
585.566	2228.218
585.694	2251.756
585.822	2267.866
585.950	2249.941
586.078	2262.008
586.206	2266.429
586.335	2286.370
586.463	2276.151
586.591	2296.412
586.719	2285.319
586.847	2299.303
586.975	2301.244
587.103	2300.370
587.231	2299.664
587.360	2311.891
587.488	2331.857
587.616	2315.933
587.744	2328.277
587.872	2315.941
588.000	2341.151
588.128	2340.933
588.256	2347.471
588.385	2327.370
588.513	2342.059
588.641	2345.622
588.769	2370.101
588.897	2350.067
589.025	2362.235
589.153	2351.210
589.281	2360.034
589.410	2375.622
589.538	2360.866
589.666	2381.269
589.794	2382.597
589.922	2384.252
590.050	2404.286
590.178	2371.244
590.306	2379.017
590.435	2405.563
590.563	2378.664
590.691	2406.739
590.819	2386.630
590.947	2431.118
591.075	2413.160
591.203	2397.420
591.331	2406.134
591.460	2417.345
591.588	2412.202
591.716	2431.815
591.844	2425.916
591.972	2441.874
592.100	2427.403
592.228	2430.462
592.356	2448.361
592.485	2435.630
592.613	2442.908
592.741	2467.168
592.869	2455.950
592.997	2479.899
593.125	2461.471
593.253	2484.118
593.381	2485.008
593.510	2485.311
593.638	2478.008
593.766	2493.462
593.894	2494.824
594.022	2490.008
594.150	2503.555
594.278	2528.193
594.406	2505.916
594.535	2524.387
594.663	2536.563
594.791	2536.521
594.919	2541.941
595.047	2559.202
595.175	2555.067
595.303	2557.723
595.431	2566.092
595.560	2590.185
595.688	2590.672
595.816	2590.857
595.944	2594.261
596.072	2598.126
596.200	2595.613
596.328	2611.403
596.456	2584.933
596.585	2608.445
596.713	2619.261
596.841	2624.429
596.969	2626.311
597.097	2650.580
597.225	2639.118
597.353	2662.084
597.481	2670.807
597.610	2681.782
597.738	2680.857
597.866	2676.000
597.994	2688.832
598.122	2710.168
598.250	2708.403
598.378	2694.395
598.506	2709.336
598.635	2711.370
598.763	2731.681
598.891	2749.681
599.019	2746.454
599.147	2754.151
599.275	2738.824
599.403	2765.025
599.531	2762.739
599.660	2767.815
599.788	2769.714
599.916	2781.118
600.044	2818.034
600.172	2775.891
600.300	2793.084
600.428	2795.891
600.556	2808.303
600.685	2868.000
600.813	2810.286
600.941	2861.824
601.069	2861.655
601.197	2855.311
601.325	2858.000
601.453	2856.227
601.581	2871.605
601.710	2886.824
601.838	2904.782
601.966	2970.807
602.094	2940.798
602.222	2927.303
602.350	2893.143
602.478	2930.891
602.606	2979.176
602.735	2914.412
602.863	2983.622
602.991	2987.655
603.119	2946.731
603.247	2965.168
603.375	2984.101
603.503	3012.403
603.631	3028.050
603.760	3033.765
603.888	3051.983
604.016	3039.118
604.144	3030.017
604.272	3072.025
604.400	3081.328
604.528	3073.588
604.656	3097.521
604.785	3121.050
604.913	3170.235
605.041	3095.706
605.169	3134.479
605.297	3126.176
605.425	3124.420
605.553	3157.412
605.681	3154.202
605.810	3183.916
605.938	3182.303
606.066	3172.706
606.194	3216.807
606.322	3196.622
606.450	3209.697
606.578	3204.941
606.706	3234.538
606.835	3227.689
606.963	3291.513
607.091	3282.261
607.219	3247.513
607.347	3246.714
607.475	3297.840
607.603	3256.168
607.731	3249.756
607.860	3277.588
607.988	3281.849
608.116	3303.420
608.244	3280.134
608.372	3343.529
608.500	3314.639
608.628	3276.739
608.756	3288.723
608.885	3354.227
609.013	3289.866
609.141	3296.840
609.269	3271.277
609.397	3307.345
609.525	3327.521
609.653	3352.176
609.781	3308.084
609.910	3338.731
610.038	3415.202
610.166	3345.773
610.294	3334.210
610.422	3339.429
610.550	3329.756
610.678	3347.361
610.806	3345.395
610.935	3345.731
611.063	3363.992
611.191	3380.252
611.319	3375.176
611.447	3357.874
611.575	3340.966
611.703	3370.160
611.831	3401.361
611.960	3384.521
612.088	3401.370
612.216	3378.555
612.344	3399.420
612.472	3401.689
612.600	3401.437
612.728	3403.286
612.856	3383.445
612.985	3399.000
613.113	3435.160
613.241	3440.176
613.369	3407.580
613.497	3425.437
613.625	3461.723
613.753	3446.924
613.881	3457.899
614.010	3409.941
614.138	3478.798
614.266	3455.319
614.394	3488.866
614.522	3480.345
614.650	3470.471
614.778	3493.025
614.906	3478.025
615.035	3519.076
615.163	3489.924
615.291	3551.773
615.419	3513.412
615.547	3500.084
615.675	3521.790
615.803	3570.319
615.931	3543.773
616.060	3527.563
616.188	3558.563
616.316	3561.521
616.444	3558.361
616.572	3593.655
616.700	3618.983
616.828	3590.916
616.956	3627.227
617.085	3607.529
617.213	3622.748
617.341	3644.580
617.469	3709.454
617.597	3634.319
617.725	3634.151
617.853	3649.387
617.981	3671.160
618.110	3722.151
618.238	3708.143
618.366	3692.664
618.494	3696.681
618.622	3710.185
618.750	3786.756
618.878	3767.588
619.006	3747.975
619.135	3803.042
619.263	3770.866
619.391	3767.420
619.519	3794.403
619.647	3851.353
619.775	3815.571
619.903	3838.118
620.031	3825.546
620.160	3841.017
620.288	3884.765
620.416	3881.328
620.544	3875.941
620.672	3883.513
620.800	3942.588
620.928	3934.370
621.056	3973.437
621.185	3955.303
621.313	3922.168
621.441	3966.193
621.569	3976.160
621.697	3978.160
621.825	4009.706
621.953	3990.958
622.081	4030.008
622.210	4003.168
622.338	4047.471
622.466	4046.370
622.594	4073.143
622.722	4027.412
622.850	4100.303
622.978	4112.084
623.106	4117.059
623.235	4109.546
623.363	4134.840
623.491	4117.429
623.619	4166.328
623.747	4136.277
623.875	4187.420
624.003	4144.672
624.131	4176.286
624.260	4204.504
624.388	4181.353
624.516	4192.017
624.644	4182.899
624.772	4191.782
624.900	4183.261
625.028	4196.790
625.156	4207.765
625.285	4254.118
625.413	4265.445
625.541	4243.546
625.669	4259.924
625.797	4269.034
625.925	4259.017
626.053	4254.731
626.181	4249.067
626.310	4350.723
626.438	4266.227
626.566	4286.168
626.694	4293.571
626.822	4288.866
626.950	4337.647
627.078	4267.899
627.206	4322.605
627.335	4334.403
627.463	4308.563
627.591	4327.151
627.719	4383.504
627.847	4342.261
627.975	4375.151
628.103	4375.151
628.231	4378.521
628.360	4376.950
628.488	4374.034
628.616	4370.101
628.744	4400.815
628.872	4383.647
629.000	4405.261
629.128	4401.286
629.256	4384.059
629.385	4412.370
629.513	4412.555
629.641	4432.412
629.769	4452.277
629.897	4450.697
630.025	4423.664
630.153	4482.538
630.281	4448.345
630.410	4444.336
630.538	4454.050
630.666	4459.832
630.794	4453.866
630.922	4498.353
631.050	4471.118
631.178	4495.689
631.306	4478.908
631.435	4494.412
631.563	4507.513
631.691	4538.185
631.819	4592.420
631.947	4508.613
632.075	4478.000
632.203	4556.630
632.331	4518.227
632.460	4546.622
632.588	4528.874
632.716	4545.429
632.844	4591.521
632.972	4517.840
633.100	4532.496
633.228	4545.328
633.356	4542.689
633.485	4541.513
633.613	4566.689
633.741	4561.613
633.869	4557.689
633.997	4571.571
634.125	4619.824
634.253	4578.286
634.381	4590.630
634.510	4585.739
634.638	4618.269
634.766	4656.748
634.894	4596.773
635.022	4599.227
635.150	4607.101
635.278	4611.160
635.406	4621.992
635.535	4600.706
635.663	4637.487
635.791	4557.983
635.919	4605.319
636.047	4590.815
636.175	4610.597
636.303	4614.782
636.431	4631.739
636.560	4637.202
636.688	4619.605
636.816	4619.303
636.944	4609.168
637.072	4635.605
637.200	4638.672
637.328	4632.622
637.456	4629.479
637.585	4623.672
637.713	4646.050
637.841	4642.218
637.969	4625.639
638.097	4645.580
638.225	4649.496
638.353	4661.513
638.481	4661.479
638.610	4654.866
638.738	4673.269
638.866	4673.017
638.994	4687.966
639.122	4645.504
639.250	4663.008
639.378	4709.210
639.506	4694.420
639.635	4702.874
639.763	4679.832
639.891	4718.277
640.019	4725.378
640.147	4745.210
640.275	4705.840
640.403	4715.395
640.531	4772.345
640.660	4728.950
640.788	4810.773
640.916	4765.143
641.044	4730.681
641.172	4736.218
641.300	4761.176
641.428	4762.134
641.556	4798.706
641.685	4798.008
641.813	4767.597
641.941	4813.504
642.069	4805.504
642.197	4862.790
642.325	4833.252
642.453	4788.269
642.581	4901.529
642.710	4794.849
642.838	4834.731
642.966	4825.748
643.094	4841.597
643.222	4825.798
643.350	4852.218
643.478	4887.975
643.606	4871.361
643.735	4829.933
643.863	4870.143
643.991	4876.126
644.119	4876.538
644.247	4897.420
644.375	4895.160
644.503	4898.017
644.631	4921.824
644.760	4921.622
644.888	4925.613
645.016	4954.866
645.144	4929.689
645.272	4888.655
645.400	4939.387
645.528	4939.689
645.656	4922.756
645.785	4931.109
645.913	5010.697
646.041	4951.731
646.169	4985.462
646.297	4929.118
646.425	4970.252
646.553	4964.353
646.681	4929.311
646.810	4954.849
646.938	4924.521
647.066	4886.647
647.194	4989.294
647.322	4912.067
647.450	4956.857
647.578	4934.882
647.706	4911.437
647.835	4922.403
647.963	4986.025
648.091	4906.681
648.219	4965.370
648.347	4955.866
648.475	4901.815
648.603	4914.580
648.731	4886.529
648.860	4900.008
648.988	4897.496
649.116	4890.487
649.244	4848.613
649.372	4897.630
649.500	4880.353
649.628	4914.462
649.756	4884.210
649.885	4861.924
650.013	4833.664
650.141	4838.933
650.269	4821.261
650.397	4802.126
650.525	4774.269
650.653	4839.899
650.781	4798.849
650.910	4788.277
651.038	4737.605
651.166	4743.613
651.294	4747.319
651.422	4735.084
651.550	4714.420
651.678	4745.227
651.806	4716.210
651.935	4701.605
652.063	4729.723
652.191	4698.605
652.319	4665.748
652.447	4683.218
652.575	4667.605
652.703	4690.479
652.831	4683.958
652.960	4637.655
653.088	4661.244
653.216	4645.689
653.344	4645.933
653.472	4637.345
653.600	4612.983
653.728	4612.622
653.856	4628.605
653.985	4610.269
654.113	4591.176
654.241	4608.277
654.369	4592.924
654.497	4608.429
654.625	4597.874
654.753	4562.471
654.881	4583.924
655.010	4616.664
655.138	4563.471
655.266	4556.588
655.394	4568.588
655.522	4583.571
655.650	4505.050
655.778	4598.731
655.906	4531.034
656.035	4485.798
656.163	4493.849
656.291	4503.597
656.419	4525.050
656.547	4497.529
656.675	4502.454
