70-100-90_at_679.99nm_cut_at_1283.50Y_01.dat
24.01.2024
11:30:51
cut middle at Y: 1283.50
top cursor: 1343 down cursor: 1224 mean of: 119 lines , 2560 datapoints
wavelength(nm)	intensity[arb. units]
515.994	690.723
516.122	643.840
516.250	642.908
516.378	630.588
516.506	633.479
516.635	632.420
516.763	639.210
516.891	638.454
517.019	641.689
517.147	639.563
517.275	638.899
517.403	640.227
517.531	641.756
517.660	632.034
517.788	637.134
517.916	640.000
518.044	633.319
518.172	645.555
518.300	640.017
518.428	642.891
518.556	640.546
518.685	637.815
518.813	645.286
518.941	649.471
519.069	643.328
519.197	645.336
519.325	651.832
519.453	642.437
519.581	654.857
519.710	652.412
519.838	656.916
519.966	649.420
520.094	656.235
520.222	651.891
520.350	655.437
520.478	664.092
520.606	673.555
520.735	653.563
520.863	669.933
520.991	672.681
521.119	665.882
521.247	670.387
521.375	675.437
521.503	673.403
521.631	676.345
521.760	669.328
521.888	675.277
522.016	682.756
522.144	677.101
522.272	681.605
522.400	682.874
522.528	687.748
522.656	678.395
522.785	688.361
522.913	691.849
523.041	687.992
523.169	681.983
523.297	684.563
523.425	689.748
523.553	691.613
523.681	686.588
523.810	690.210
523.938	694.521
524.066	687.429
524.194	693.958
524.322	690.647
524.450	690.017
524.578	684.563
524.706	695.395
524.835	690.261
524.963	692.118
525.091	685.546
525.219	697.076
525.347	689.143
525.475	701.748
525.603	690.168
525.731	691.269
525.860	690.244
525.988	687.597
526.116	688.664
526.244	696.328
526.372	688.244
526.500	691.664
526.628	701.824
526.756	687.403
526.885	697.832
527.013	695.487
527.141	691.882
527.269	696.353
527.397	695.681
527.525	701.437
527.653	697.017
527.781	692.311
527.910	703.874
528.038	705.395
528.166	705.689
528.294	702.445
528.422	702.395
528.550	705.782
528.678	708.143
528.806	704.849
528.935	712.412
529.063	711.160
529.191	709.840
529.319	710.815
529.447	712.151
529.575	712.958
529.703	718.000
529.831	722.756
529.960	721.109
530.088	722.941
530.216	720.697
530.344	719.261
530.472	725.437
530.600	722.605
530.728	727.151
530.856	729.487
530.985	728.042
531.113	722.151
531.241	728.958
531.369	730.277
531.497	730.529
531.625	727.916
531.753	731.378
531.881	727.059
532.010	729.387
532.138	730.420
532.266	727.193
532.394	726.882
532.522	723.857
532.650	736.445
532.778	731.487
532.906	724.689
533.035	737.916
533.163	720.126
533.291	723.748
533.419	723.017
533.547	729.227
533.675	724.361
533.803	724.025
533.931	724.748
534.060	720.824
534.188	729.101
534.316	725.218
534.444	723.807
534.572	722.361
534.700	725.210
534.828	727.311
534.956	736.546
535.085	733.134
535.213	737.924
535.341	735.571
535.469	730.798
535.597	735.824
535.725	735.941
535.853	744.361
535.981	736.681
536.110	748.697
536.238	746.050
536.366	756.714
536.494	748.924
536.622	751.134
536.750	745.076
536.878	750.261
537.006	760.294
537.135	756.529
537.263	752.840
537.391	754.143
537.519	750.840
537.647	760.445
537.775	756.571
537.903	763.454
538.031	765.487
538.160	760.067
538.288	762.118
538.416	770.151
538.544	767.151
538.672	765.429
538.800	770.176
538.928	772.756
539.056	774.546
539.185	775.538
539.313	768.992
539.441	774.025
539.569	771.723
539.697	777.563
539.825	774.487
539.953	772.235
540.081	768.739
540.210	772.622
540.338	771.176
540.466	776.067
540.594	773.563
540.722	763.471
540.850	776.185
540.978	781.655
541.106	774.916
541.235	778.748
541.363	777.143
541.491	777.655
541.619	773.529
541.747	772.773
541.875	777.261
542.003	775.807
542.131	778.059
542.260	781.151
542.388	775.076
542.516	776.882
542.644	783.336
542.772	779.739
542.900	777.756
543.028	772.303
543.156	780.109
543.285	779.269
543.413	783.387
543.541	785.798
543.669	789.529
543.797	789.605
543.925	782.336
544.053	789.790
544.181	782.882
544.310	783.059
544.438	781.748
544.566	781.252
544.694	790.261
544.822	789.622
544.950	789.050
545.078	792.050
545.206	791.008
545.335	797.580
545.463	787.487
545.591	791.933
545.719	791.454
545.847	793.916
545.975	796.210
546.103	792.580
546.231	800.000
546.360	795.437
546.488	797.672
546.616	799.412
546.744	802.941
546.872	794.807
547.000	802.000
547.128	797.706
547.256	800.924
547.385	799.958
547.513	800.832
547.641	804.076
547.769	812.580
547.897	804.269
548.025	803.874
548.153	811.958
548.281	804.084
548.410	810.824
548.538	810.966
548.666	808.706
548.794	810.471
548.922	809.361
549.050	809.437
549.178	810.529
549.306	810.345
549.435	817.891
549.563	807.420
549.691	807.244
549.819	815.042
549.947	822.059
550.075	814.983
550.203	804.143
550.331	810.605
550.460	813.412
550.588	808.034
550.716	813.454
550.844	804.933
550.972	802.941
551.100	802.311
551.228	807.370
551.356	800.504
551.485	806.429
551.613	801.134
551.741	795.303
551.869	795.773
551.997	793.958
552.125	793.118
552.253	792.101
552.381	788.916
552.510	789.916
552.638	780.874
552.766	793.605
552.894	785.950
553.022	790.034
553.150	787.513
553.278	784.513
553.406	772.462
553.535	780.151
553.663	785.050
553.791	782.235
553.919	778.387
554.047	791.134
554.175	785.731
554.303	779.613
554.431	770.975
554.560	786.420
554.688	789.605
554.816	784.092
554.944	788.227
555.072	782.513
555.200	789.664
555.328	781.042
555.456	794.395
555.585	782.714
555.713	789.445
555.841	797.437
555.969	795.874
556.097	794.866
556.225	802.487
556.353	802.706
556.481	794.378
556.610	809.017
556.738	804.555
556.866	804.672
556.994	796.328
557.122	794.950
557.250	803.672
557.378	808.521
557.506	804.017
557.635	803.521
557.763	812.546
557.891	814.420
558.019	805.261
558.147	814.261
558.275	813.176
558.403	817.235
558.531	817.521
558.660	808.975
558.788	823.882
558.916	820.891
559.044	813.151
559.172	817.370
559.300	824.202
559.428	824.134
559.556	819.336
559.685	823.395
559.813	823.983
559.941	823.857
560.069	830.067
560.197	832.908
560.325	830.664
560.453	824.092
560.581	825.521
560.710	829.950
560.838	823.336
560.966	820.084
561.094	830.303
561.222	827.605
561.350	826.924
561.478	816.798
561.606	825.160
561.735	822.773
561.863	819.496
561.991	825.370
562.119	815.025
562.247	820.437
562.375	814.950
562.503	818.109
562.631	819.723
562.760	819.840
562.888	821.714
563.016	818.950
563.144	821.269
563.272	811.361
563.400	816.143
563.528	808.420
563.656	819.882
563.785	818.672
563.913	812.202
564.041	810.403
564.169	819.983
564.297	814.546
564.425	810.882
564.553	821.479
564.681	817.000
564.810	813.655
564.938	818.975
565.066	809.286
565.194	817.639
565.322	821.008
565.450	821.849
565.578	814.563
565.706	818.109
565.835	819.832
565.963	816.681
566.091	821.059
566.219	819.739
566.347	815.950
566.475	818.983
566.603	827.538
566.731	825.109
566.860	823.840
566.988	823.891
567.116	838.504
567.244	828.176
567.372	842.252
567.500	844.345
567.628	837.134
567.756	833.756
567.885	843.933
568.013	848.235
568.141	843.109
568.269	840.773
568.397	836.807
568.525	841.487
568.653	856.933
568.781	851.445
568.910	865.269
569.038	859.706
569.166	857.387
569.294	855.076
569.422	860.782
569.550	851.992
569.678	857.563
569.806	870.731
569.935	862.134
570.063	864.303
570.191	875.580
570.319	863.193
570.447	877.471
570.575	876.580
570.703	871.319
570.831	878.437
570.960	872.437
571.088	878.059
571.216	879.504
571.344	878.689
571.472	875.866
571.600	890.950
571.728	877.345
571.856	884.765
571.985	885.782
572.113	885.496
572.241	887.849
572.369	892.437
572.497	888.025
572.625	894.639
572.753	894.748
572.881	892.555
573.010	893.639
573.138	908.723
573.266	904.042
573.394	902.529
573.522	899.134
573.650	900.504
573.778	903.521
573.906	893.874
574.035	892.143
574.163	897.714
574.291	902.924
574.419	902.748
574.547	905.966
574.675	911.639
574.803	917.336
574.931	898.336
575.060	915.916
575.188	902.714
575.316	905.899
575.444	905.580
575.572	909.815
575.700	898.403
575.828	911.294
575.956	915.395
576.085	904.227
576.213	904.387
576.341	901.849
576.469	902.756
576.597	897.496
576.725	900.471
576.853	903.538
576.981	900.479
577.110	897.252
577.238	904.630
577.366	896.849
577.494	891.227
577.622	894.622
577.750	911.000
577.878	896.538
578.006	905.370
578.135	898.681
578.263	893.101
578.391	910.227
578.519	897.798
578.647	906.639
578.775	904.000
578.903	896.748
579.031	907.370
579.160	902.412
579.288	894.605
579.416	895.840
579.544	902.706
579.672	905.395
579.800	915.370
579.928	899.555
580.056	884.420
580.185	905.176
580.313	907.933
580.441	910.630
580.569	900.748
580.697	906.126
580.825	905.168
580.953	916.731
581.081	909.176
581.210	915.076
581.338	917.891
581.466	917.672
581.594	921.714
581.722	908.210
581.850	909.840
581.978	916.420
582.106	921.286
582.235	928.899
582.363	912.815
582.491	927.933
582.619	918.866
582.747	926.706
582.875	934.193
583.003	935.513
583.131	935.714
583.260	941.151
583.388	942.765
583.516	936.815
583.644	946.630
583.772	941.908
583.900	944.992
584.028	957.092
584.156	945.361
584.285	960.261
584.413	958.336
584.541	959.798
584.669	965.765
584.797	966.345
584.925	974.328
585.053	976.706
585.181	974.840
585.310	979.504
585.438	977.277
585.566	981.143
585.694	986.546
585.822	997.126
585.950	988.353
586.078	991.639
586.206	996.143
586.335	997.008
586.463	1007.538
586.591	1010.353
586.719	1008.143
586.847	1011.370
586.975	1005.126
587.103	1012.689
587.231	997.126
587.360	1016.790
587.488	1013.647
587.616	1012.412
587.744	1019.134
587.872	1008.151
588.000	1012.437
588.128	1025.345
588.256	1021.185
588.385	1015.294
588.513	1022.975
588.641	1026.487
588.769	1032.277
588.897	1022.748
589.025	1023.882
589.153	1025.714
589.281	1023.916
589.410	1030.992
589.538	1028.782
589.666	1026.664
589.794	1028.202
589.922	1035.319
590.050	1039.630
590.178	1028.445
590.306	1033.958
590.435	1032.261
590.563	1031.176
590.691	1041.546
590.819	1033.571
590.947	1043.639
591.075	1036.092
591.203	1025.966
591.331	1045.076
591.460	1051.597
591.588	1037.706
591.716	1050.882
591.844	1051.109
591.972	1053.000
592.100	1057.235
592.228	1053.017
592.356	1054.261
592.485	1047.908
592.613	1050.706
592.741	1055.941
592.869	1061.807
592.997	1056.706
593.125	1064.613
593.253	1069.210
593.381	1063.630
593.510	1070.345
593.638	1067.109
593.766	1070.387
593.894	1076.084
594.022	1072.134
594.150	1071.134
594.278	1084.303
594.406	1083.681
594.535	1078.050
594.663	1084.252
594.791	1092.311
594.919	1089.445
595.047	1097.403
595.175	1092.218
595.303	1088.622
595.431	1101.134
595.560	1107.235
595.688	1108.546
595.816	1099.471
595.944	1112.261
596.072	1113.143
596.200	1112.244
596.328	1104.857
596.456	1111.185
596.585	1120.555
596.713	1131.361
596.841	1118.529
596.969	1121.513
597.097	1128.084
597.225	1129.277
597.353	1135.370
597.481	1137.513
597.610	1132.748
597.738	1136.353
597.866	1141.328
597.994	1149.588
598.122	1154.429
598.250	1148.849
598.378	1144.613
598.506	1153.395
598.635	1140.370
598.763	1165.815
598.891	1160.790
599.019	1166.815
599.147	1151.429
599.275	1159.571
599.403	1165.714
599.531	1174.521
599.660	1174.471
599.788	1178.664
599.916	1173.513
600.044	1177.336
600.172	1179.723
600.300	1198.891
600.428	1190.714
600.556	1193.185
600.685	1204.387
600.813	1196.353
600.941	1213.605
601.069	1206.429
601.197	1216.975
601.325	1211.101
601.453	1215.966
601.581	1217.445
601.710	1221.000
601.838	1229.563
601.966	1229.311
602.094	1225.429
602.222	1235.462
602.350	1227.950
602.478	1241.218
602.606	1244.395
602.735	1243.126
602.863	1259.546
602.991	1254.538
603.119	1263.882
603.247	1264.244
603.375	1265.252
603.503	1258.202
603.631	1273.084
603.760	1277.412
603.888	1284.160
604.016	1271.832
604.144	1290.235
604.272	1296.277
604.400	1292.387
604.528	1290.487
604.656	1295.731
604.785	1307.437
604.913	1310.008
605.041	1322.235
605.169	1315.908
605.297	1314.546
605.425	1321.311
605.553	1324.370
605.681	1324.462
605.810	1323.471
605.938	1336.840
606.066	1335.336
606.194	1342.277
606.322	1334.866
606.450	1347.748
606.578	1360.529
606.706	1359.874
606.835	1349.311
606.963	1363.336
607.091	1364.193
607.219	1352.277
607.347	1360.664
607.475	1371.782
607.603	1362.193
607.731	1357.815
607.860	1357.395
607.988	1372.336
608.116	1357.176
608.244	1367.134
608.372	1377.151
608.500	1382.176
608.628	1372.689
608.756	1370.723
608.885	1374.345
609.013	1374.109
609.141	1385.958
609.269	1384.017
609.397	1376.193
609.525	1377.067
609.653	1384.941
609.781	1384.521
609.910	1389.143
610.038	1379.403
610.166	1386.908
610.294	1378.723
610.422	1395.706
610.550	1390.975
610.678	1397.655
610.806	1393.387
610.935	1392.790
611.063	1388.395
611.191	1390.353
611.319	1395.681
611.447	1388.950
611.575	1397.025
611.703	1387.025
611.831	1399.655
611.960	1391.723
612.088	1388.092
612.216	1413.471
612.344	1415.101
612.472	1392.958
612.600	1401.345
612.728	1403.202
612.856	1400.882
612.985	1400.933
613.113	1401.076
613.241	1411.613
613.369	1409.857
613.497	1420.017
613.625	1422.706
613.753	1423.555
613.881	1414.840
614.010	1418.000
614.138	1419.966
614.266	1417.487
614.394	1416.050
614.522	1423.462
614.650	1432.176
614.778	1439.193
614.906	1436.202
615.035	1434.899
615.163	1436.261
615.291	1439.345
615.419	1436.706
615.547	1439.076
615.675	1451.588
615.803	1443.361
615.931	1457.218
616.060	1462.798
616.188	1467.454
616.316	1455.647
616.444	1463.092
616.572	1467.748
616.700	1457.874
616.828	1474.143
616.956	1486.908
617.085	1499.235
617.213	1492.294
617.341	1471.639
617.469	1491.025
617.597	1506.782
617.725	1502.840
617.853	1489.899
617.981	1504.202
618.110	1513.689
618.238	1498.529
618.366	1530.345
618.494	1526.361
618.622	1515.975
618.750	1526.361
618.878	1528.521
619.006	1529.622
619.135	1548.193
619.263	1546.361
619.391	1550.311
619.519	1548.378
619.647	1568.891
619.775	1553.286
619.903	1577.597
620.031	1568.378
620.160	1568.092
620.288	1581.739
620.416	1593.496
620.544	1588.277
620.672	1600.277
620.800	1591.454
620.928	1612.731
621.056	1603.277
621.185	1606.756
621.313	1598.824
621.441	1624.092
621.569	1638.647
621.697	1631.908
621.825	1644.639
621.953	1632.000
622.081	1652.109
622.210	1633.857
622.338	1651.479
622.466	1650.311
622.594	1668.277
622.722	1670.866
622.850	1673.092
622.978	1679.319
623.106	1673.244
623.235	1689.109
623.363	1687.773
623.491	1684.613
623.619	1680.597
623.747	1681.294
623.875	1687.017
624.003	1685.160
624.131	1700.303
624.260	1680.101
624.388	1711.025
624.516	1711.076
624.644	1699.017
624.772	1705.538
624.900	1714.143
625.028	1703.580
625.156	1734.067
625.285	1718.613
625.413	1722.563
625.541	1725.252
625.669	1727.908
625.797	1728.782
625.925	1731.588
626.053	1725.748
626.181	1740.227
626.310	1730.908
626.438	1737.496
626.566	1728.992
626.694	1738.731
626.822	1739.084
626.950	1742.126
627.078	1759.462
627.206	1740.378
627.335	1765.227
627.463	1759.496
627.591	1766.966
627.719	1754.202
627.847	1766.681
627.975	1771.025
628.103	1750.244
628.231	1762.445
628.360	1758.134
628.488	1775.134
628.616	1776.168
628.744	1760.933
628.872	1777.563
629.000	1773.630
629.128	1774.076
629.256	1788.849
629.385	1787.210
629.513	1778.454
629.641	1797.008
629.769	1776.613
629.897	1788.874
630.025	1781.605
630.153	1807.882
630.281	1795.387
630.410	1785.983
630.538	1808.311
630.666	1794.336
630.794	1802.076
630.922	1790.622
631.050	1790.790
631.178	1814.227
631.306	1800.983
631.435	1808.437
631.563	1806.647
631.691	1790.622
631.819	1806.025
631.947	1822.378
632.075	1810.983
632.203	1818.345
632.331	1817.538
632.460	1813.958
632.588	1828.950
632.716	1823.899
632.844	1820.429
632.972	1837.059
633.100	1829.706
633.228	1833.655
633.356	1824.218
633.485	1832.832
633.613	1831.185
633.741	1841.185
633.869	1836.109
633.997	1823.521
634.125	1822.697
634.253	1823.731
634.381	1822.151
634.510	1828.882
634.638	1816.303
634.766	1828.563
634.894	1832.218
635.022	1825.202
635.150	1832.143
635.278	1858.689
635.406	1842.748
635.535	1836.126
635.663	1853.084
635.791	1819.924
635.919	1845.151
636.047	1834.832
636.175	1822.294
636.303	1851.202
636.431	1848.933
636.560	1851.824
636.688	1841.849
636.816	1841.571
636.944	1843.538
637.072	1852.445
637.200	1846.840
637.328	1842.958
637.456	1846.471
637.585	1843.605
637.713	1857.353
637.841	1839.832
637.969	1847.017
638.097	1836.193
638.225	1856.244
638.353	1859.639
638.481	1855.958
638.610	1873.151
638.738	1854.630
638.866	1853.294
638.994	1857.504
639.122	1864.034
639.250	1870.244
639.378	1853.336
639.506	1862.622
639.635	1872.773
639.763	1851.874
639.891	1878.857
640.019	1887.059
640.147	1879.168
640.275	1870.807
640.403	1862.706
640.531	1870.218
640.660	1871.303
640.788	1882.899
640.916	1876.034
641.044	1912.311
641.172	1897.714
641.300	1896.723
641.428	1892.891
641.556	1907.588
641.685	1885.202
641.813	1896.345
641.941	1901.832
642.069	1898.790
642.197	1903.798
642.325	1891.782
642.453	1926.924
642.581	1919.387
642.710	1907.899
642.838	1931.059
642.966	1901.630
643.094	1910.723
643.222	1914.151
643.350	1900.504
643.478	1930.261
643.606	1930.605
643.735	1929.437
643.863	1915.286
643.991	1942.294
644.119	1935.765
644.247	1934.277
644.375	1932.538
644.503	1948.975
644.631	1948.361
644.760	1941.924
644.888	1953.361
645.016	1933.966
645.144	1959.639
645.272	1941.807
645.400	1956.824
645.528	1953.454
645.656	1943.521
645.785	1945.655
645.913	1952.874
646.041	1964.454
646.169	1936.034
646.297	1934.160
646.425	1953.882
646.553	1951.067
646.681	1949.076
646.810	1940.891
646.938	1951.462
647.066	1948.269
647.194	1936.639
647.322	1938.269
647.450	1943.807
647.578	1956.429
647.706	1946.193
647.835	1947.168
647.963	1932.513
648.091	1944.933
648.219	1930.143
648.347	1939.412
648.475	1940.193
648.603	1934.269
648.731	1926.034
648.860	1910.479
648.988	1940.210
649.116	1926.193
649.244	1910.160
649.372	1909.454
649.500	1910.815
649.628	1922.210
649.756	1914.134
649.885	1892.975
650.013	1902.538
650.141	1885.067
650.269	1884.496
650.397	1899.395
650.525	1893.756
650.653	1891.983
650.781	1870.000
650.910	1878.782
651.038	1862.118
651.166	1877.092
651.294	1857.134
651.422	1868.504
651.550	1855.546
651.678	1845.437
651.806	1851.151
651.935	1855.882
652.063	1835.193
652.191	1846.092
652.319	1844.471
652.447	1834.706
652.575	1811.151
652.703	1810.345
652.831	1817.588
652.960	1808.429
653.088	1819.639
653.216	1796.420
653.344	1795.815
653.472	1808.824
653.600	1793.975
653.728	1791.017
653.856	1785.235
653.985	1811.588
654.113	1791.000
654.241	1791.244
654.369	1780.479
654.497	1797.815
654.625	1787.622
654.753	1768.361
654.881	1789.294
655.010	1786.017
655.138	1776.597
655.266	1773.807
655.394	1747.437
655.522	1763.143
655.650	1746.798
655.778	1763.168
655.906	1761.857
656.035	1755.496
656.163	1750.160
656.291	1751.773
656.419	1755.244
656.547	1746.496
656.675	1743.832
656.803	1741.723
656.931	1736.370
657.060	1745.076
657.188	1745.294
657.316	1730.504
657.444	1734.655
657.572	1739.958
657.700	1729.403
657.828	1721.378
657.956	1728.193
658.085	1744.109
658.213	1727.025
658.341	1725.639
658.469	1722.084
658.597	1729.462
658.725	1731.966
658.853	1718.975
658.981	1702.891
659.110	1718.857
659.238	1712.504
659.366	1703.975
659.494	1705.118
659.622	1711.353
659.750	1707.773
659.878	1694.924
660.006	1700.706
660.135	1695.168
660.263	1697.950
660.391	1675.437
660.519	1691.118
660.647	1679.681
