70-130-90_at_679.99nm_cut_at_1283.50Y_01.dat
24.01.2024
11:34:48
cut middle at Y: 1283.50
top cursor: 1343 down cursor: 1224 mean of: 119 lines , 2560 datapoints
wavelength(nm)	intensity[arb. units]
515.994	527.681
516.122	504.580
516.250	492.000
516.378	481.790
516.506	488.008
516.635	493.294
516.763	494.420
516.891	495.454
517.019	497.471
517.147	493.412
517.275	497.773
517.403	497.790
517.531	496.504
517.660	496.697
517.788	495.765
517.916	494.092
518.044	492.714
518.172	501.269
518.300	496.462
518.428	495.109
518.556	498.168
518.685	495.487
518.813	498.008
518.941	502.731
519.069	500.202
519.197	501.218
519.325	510.697
519.453	503.824
519.581	509.109
519.710	504.269
519.838	507.134
519.966	508.706
520.094	516.874
520.222	513.193
520.350	515.639
520.478	517.706
520.606	514.706
520.735	515.403
520.863	519.336
520.991	525.361
521.119	524.975
521.247	533.563
521.375	528.151
521.503	532.899
521.631	530.092
521.760	534.563
521.888	535.412
522.016	532.933
522.144	532.613
522.272	531.420
522.400	537.815
522.528	537.555
522.656	536.605
522.785	541.387
522.913	543.076
523.041	533.235
523.169	534.487
523.297	531.857
523.425	540.891
523.553	543.655
523.681	534.571
523.810	542.387
523.938	549.261
524.066	542.782
524.194	536.622
524.322	547.437
524.450	536.059
524.578	531.555
524.706	545.773
524.835	542.118
524.963	544.126
525.091	544.126
525.219	545.269
525.347	542.185
525.475	541.798
525.603	543.849
525.731	546.924
525.860	548.487
525.988	544.059
526.116	541.832
526.244	542.916
526.372	542.605
526.500	540.210
526.628	550.966
526.756	543.235
526.885	548.723
527.013	546.277
527.141	547.420
527.269	547.496
527.397	556.496
527.525	550.513
527.653	552.412
527.781	544.739
527.910	555.067
528.038	552.748
528.166	550.891
528.294	558.807
528.422	551.958
528.550	556.479
528.678	561.261
528.806	559.538
528.935	562.445
529.063	568.042
529.191	563.084
529.319	565.454
529.447	558.723
529.575	566.950
529.703	562.966
529.831	571.286
529.960	567.714
530.088	572.639
530.216	573.143
530.344	574.924
530.472	575.218
530.600	572.714
530.728	576.983
530.856	581.471
530.985	576.882
531.113	575.496
531.241	580.412
531.369	580.084
531.497	581.210
531.625	580.387
531.753	573.546
531.881	580.176
532.010	583.387
532.138	573.975
532.266	571.748
532.394	581.479
532.522	579.151
532.650	578.958
532.778	583.244
532.906	575.731
533.035	575.395
533.163	583.244
533.291	578.353
533.419	572.160
533.547	576.185
533.675	577.160
533.803	575.933
533.931	575.739
534.060	583.361
534.188	579.126
534.316	579.924
534.444	575.529
534.572	574.798
534.700	577.807
534.828	580.672
534.956	590.118
535.085	587.672
535.213	584.857
535.341	581.655
535.469	585.143
535.597	588.555
535.725	596.471
535.853	593.975
535.981	586.059
536.110	596.689
536.238	597.403
536.366	600.639
536.494	596.479
536.622	595.672
536.750	598.605
536.878	605.731
537.006	605.445
537.135	604.454
537.263	606.151
537.391	608.966
537.519	605.882
537.647	613.487
537.775	614.479
537.903	612.168
538.031	615.202
538.160	614.025
538.288	611.765
538.416	616.832
538.544	618.639
538.672	618.437
538.800	619.697
538.928	621.437
539.056	628.664
539.185	626.311
539.313	625.210
539.441	620.882
539.569	623.731
539.697	627.849
539.825	632.000
539.953	624.277
540.081	621.597
540.210	625.008
540.338	628.697
540.466	628.345
540.594	628.445
540.722	621.151
540.850	627.462
540.978	627.462
541.106	628.328
541.235	635.882
541.363	621.882
541.491	632.185
541.619	627.681
541.747	624.891
541.875	630.429
542.003	623.445
542.131	628.151
542.260	635.303
542.388	636.303
542.516	633.151
542.644	631.571
542.772	631.798
542.900	634.588
543.028	635.689
543.156	634.899
543.285	635.580
543.413	634.563
543.541	645.193
543.669	643.798
543.797	635.815
543.925	643.874
544.053	639.008
544.181	642.849
544.310	639.513
544.438	638.538
544.566	640.160
544.694	643.731
544.822	644.395
544.950	642.958
545.078	642.050
545.206	647.521
545.335	649.378
545.463	639.739
545.591	644.832
545.719	644.193
545.847	647.924
545.975	651.588
546.103	651.101
546.231	651.966
546.360	651.202
546.488	658.193
546.616	652.664
546.744	651.378
546.872	651.202
547.000	653.874
547.128	662.160
547.256	654.193
547.385	656.672
547.513	658.252
547.641	662.395
547.769	663.975
547.897	657.101
548.025	670.790
548.153	665.420
548.281	664.412
548.410	665.513
548.538	661.580
548.666	671.521
548.794	660.916
548.922	661.782
549.050	672.891
549.178	671.975
549.306	675.042
549.435	667.798
549.563	673.513
549.691	664.790
549.819	677.824
549.947	671.689
550.075	672.210
550.203	666.975
550.331	665.555
550.460	668.479
550.588	663.563
550.716	676.042
550.844	672.185
550.972	668.319
551.100	663.529
551.228	667.546
551.356	664.571
551.485	663.487
551.613	664.176
551.741	660.143
551.869	652.773
551.997	656.000
552.125	657.092
552.253	659.000
552.381	657.605
552.510	659.950
552.638	657.605
552.766	659.983
552.894	651.588
553.022	655.504
553.150	659.210
553.278	658.647
553.406	654.496
553.535	653.042
553.663	658.597
553.791	649.597
553.919	652.244
554.047	657.370
554.175	658.134
554.303	657.840
554.431	658.403
554.560	660.513
554.688	662.966
554.816	659.908
554.944	660.891
555.072	656.261
555.200	661.042
555.328	657.739
555.456	661.143
555.585	663.429
555.713	669.807
555.841	674.849
555.969	670.899
556.097	672.941
556.225	671.857
556.353	682.899
556.481	671.008
556.610	679.353
556.738	681.017
556.866	688.597
556.994	675.294
557.122	678.008
557.250	680.706
557.378	686.328
557.506	681.462
557.635	687.403
557.763	685.647
557.891	695.798
558.019	679.076
558.147	695.059
558.275	689.731
558.403	695.714
558.531	697.815
558.660	694.218
558.788	703.672
558.916	695.723
559.044	691.034
559.172	697.353
559.300	701.227
559.428	704.235
559.556	706.218
559.685	703.983
559.813	699.790
559.941	694.151
560.069	705.244
560.197	704.739
560.325	710.294
560.453	702.597
560.581	706.782
560.710	707.529
560.838	704.235
560.966	710.941
561.094	715.866
561.222	706.899
561.350	710.286
561.478	701.395
561.606	707.697
561.735	701.429
561.863	701.000
561.991	705.689
562.119	701.193
562.247	703.588
562.375	708.378
562.503	704.487
562.631	703.487
562.760	701.126
562.888	705.025
563.016	701.429
563.144	707.403
563.272	702.454
563.400	697.042
563.528	701.866
563.656	710.891
563.785	702.765
563.913	697.655
564.041	699.874
564.169	705.008
564.297	702.647
564.425	703.689
564.553	710.739
564.681	712.218
564.810	707.622
564.938	710.479
565.066	705.555
565.194	715.193
565.322	709.765
565.450	710.597
565.578	719.924
565.706	712.277
565.835	713.555
565.963	711.790
566.091	712.059
566.219	718.756
566.347	716.151
566.475	719.126
566.603	723.185
566.731	724.496
566.860	720.773
566.988	720.496
567.116	729.109
567.244	732.723
567.372	731.613
567.500	741.563
567.628	732.109
567.756	733.311
567.885	747.622
568.013	745.832
568.141	747.731
568.269	738.034
568.397	738.345
568.525	739.370
568.653	753.983
568.781	751.126
568.910	754.950
569.038	755.076
569.166	747.513
569.294	757.546
569.422	763.748
569.550	763.605
569.678	763.420
569.806	762.008
569.935	760.840
570.063	775.857
570.191	771.395
570.319	777.815
570.447	771.647
570.575	772.983
570.703	777.908
570.831	788.378
570.960	778.471
571.088	788.731
571.216	780.336
571.344	786.697
571.472	784.555
571.600	793.370
571.728	787.227
571.856	788.672
571.985	795.109
572.113	795.361
572.241	799.345
572.369	803.286
572.497	804.462
572.625	804.597
572.753	797.916
572.881	806.538
573.010	801.084
573.138	814.924
573.266	815.714
573.394	817.345
573.522	811.067
573.650	805.487
573.778	812.143
573.906	808.958
574.035	811.286
574.163	814.857
574.291	812.521
574.419	813.025
574.547	822.261
574.675	816.613
574.803	814.992
574.931	815.908
575.060	826.252
575.188	820.235
575.316	816.529
575.444	826.588
575.572	824.076
575.700	818.218
575.828	822.588
575.956	825.471
576.085	814.714
576.213	832.126
576.341	817.185
576.469	821.521
576.597	818.950
576.725	822.218
576.853	819.294
576.981	826.597
577.110	821.151
577.238	825.882
577.366	824.639
577.494	818.454
577.622	821.933
577.750	822.647
577.878	822.059
578.006	832.353
578.135	831.101
578.263	824.681
578.391	837.622
578.519	819.395
578.647	831.235
578.775	822.218
578.903	822.882
579.031	830.521
579.160	825.504
579.288	826.773
579.416	829.773
579.544	829.160
579.672	835.303
579.800	836.840
579.928	833.798
580.056	834.353
580.185	833.933
580.313	834.950
580.441	839.160
580.569	834.353
580.697	829.706
580.825	841.790
580.953	846.059
581.081	847.866
581.210	848.807
581.338	856.303
581.466	857.580
581.594	857.261
581.722	853.193
581.850	854.076
581.978	858.235
582.106	857.630
582.235	869.353
582.363	851.521
582.491	861.672
582.619	861.319
582.747	873.429
582.875	869.303
583.003	877.134
583.131	882.294
583.260	888.311
583.388	885.042
583.516	887.252
583.644	889.034
583.772	888.176
583.900	900.261
584.028	899.840
584.156	892.857
584.285	906.689
584.413	900.681
584.541	908.899
584.669	907.017
584.797	906.966
584.925	915.462
585.053	922.437
585.181	918.496
585.310	920.840
585.438	931.244
585.566	921.487
585.694	941.101
585.822	942.151
585.950	939.218
586.078	947.773
586.206	946.059
586.335	951.193
586.463	945.664
586.591	956.151
586.719	956.731
586.847	961.084
586.975	962.966
587.103	963.756
587.231	966.756
587.360	962.849
587.488	972.681
587.616	971.807
587.744	976.849
587.872	968.924
588.000	976.756
588.128	979.891
588.256	979.076
588.385	986.538
588.513	978.840
588.641	981.975
588.769	988.286
588.897	986.824
589.025	979.983
589.153	985.731
589.281	987.950
589.410	991.975
589.538	987.815
589.666	993.529
589.794	986.815
589.922	1000.941
590.050	1002.966
590.178	986.193
590.306	996.697
590.435	1003.639
590.563	999.908
590.691	1009.067
590.819	996.983
590.947	1013.160
591.075	1002.714
591.203	1005.975
591.331	1018.412
591.460	1022.092
591.588	1006.773
591.716	1024.933
591.844	1020.555
591.972	1023.933
592.100	1022.185
592.228	1019.361
592.356	1023.361
592.485	1022.555
592.613	1024.983
592.741	1031.118
592.869	1035.294
592.997	1037.655
593.125	1046.681
593.253	1056.084
593.381	1039.244
593.510	1054.748
593.638	1046.672
593.766	1054.345
593.894	1048.387
594.022	1050.605
594.150	1058.042
594.278	1061.622
594.406	1059.849
594.535	1053.672
594.663	1065.941
594.791	1057.958
594.919	1072.723
595.047	1074.244
595.175	1081.336
595.303	1083.874
595.431	1075.378
595.560	1095.261
595.688	1085.269
595.816	1085.639
595.944	1107.252
596.072	1103.269
596.200	1097.143
596.328	1093.454
596.456	1103.403
596.585	1102.118
596.713	1110.832
596.841	1114.555
596.969	1111.210
597.097	1123.790
597.225	1128.840
597.353	1136.387
597.481	1127.378
597.610	1129.067
597.738	1132.521
597.866	1138.261
597.994	1140.311
598.122	1142.319
598.250	1139.193
598.378	1141.983
598.506	1149.294
598.635	1144.134
598.763	1160.824
598.891	1163.462
599.019	1166.067
599.147	1164.319
599.275	1158.294
599.403	1169.782
599.531	1163.723
599.660	1171.496
599.788	1180.487
599.916	1176.723
600.044	1182.639
600.172	1183.126
600.300	1185.731
600.428	1188.235
600.556	1190.966
600.685	1203.672
600.813	1203.008
600.941	1214.429
601.069	1215.563
601.197	1219.101
601.325	1204.966
601.453	1224.563
601.581	1230.185
601.710	1226.160
601.838	1240.252
601.966	1230.782
602.094	1248.109
602.222	1235.924
602.350	1240.370
602.478	1252.370
602.606	1261.286
602.735	1259.983
602.863	1271.513
602.991	1269.445
603.119	1281.168
603.247	1273.571
603.375	1290.202
603.503	1280.151
603.631	1296.731
603.760	1286.437
603.888	1298.025
604.016	1299.689
604.144	1304.025
604.272	1306.336
604.400	1321.739
604.528	1316.092
604.656	1317.546
604.785	1320.815
604.913	1335.345
605.041	1345.790
605.169	1343.008
605.297	1336.496
605.425	1342.395
605.553	1360.168
605.681	1351.151
605.810	1349.849
605.938	1357.303
606.066	1353.345
606.194	1362.748
606.322	1358.580
606.450	1368.706
606.578	1372.126
606.706	1377.513
606.835	1380.454
606.963	1381.891
607.091	1383.832
607.219	1393.151
607.347	1391.739
607.475	1397.235
607.603	1400.261
607.731	1396.756
607.860	1379.571
607.988	1403.345
608.116	1401.605
608.244	1408.092
608.372	1406.966
608.500	1408.958
608.628	1411.412
608.756	1407.739
608.885	1409.454
609.013	1415.815
609.141	1412.261
609.269	1414.681
609.397	1413.303
609.525	1416.521
609.653	1412.252
609.781	1417.101
609.910	1412.681
610.038	1416.504
610.166	1432.899
610.294	1410.555
610.422	1431.403
610.550	1427.798
610.678	1425.328
610.806	1428.815
610.935	1436.672
611.063	1432.353
611.191	1425.782
611.319	1422.731
611.447	1438.681
611.575	1435.017
611.703	1424.983
611.831	1442.151
611.960	1440.277
612.088	1439.790
612.216	1443.261
612.344	1445.286
612.472	1437.874
612.600	1447.462
612.728	1438.790
612.856	1446.815
612.985	1444.479
613.113	1440.992
613.241	1463.580
613.369	1456.454
613.497	1463.429
613.625	1463.193
613.753	1454.118
613.881	1460.773
614.010	1452.798
614.138	1460.109
614.266	1470.193
614.394	1464.496
614.522	1472.513
614.650	1481.496
614.778	1462.126
614.906	1486.655
615.035	1487.924
615.163	1487.933
615.291	1485.471
615.419	1497.378
615.547	1480.471
615.675	1494.916
615.803	1494.546
615.931	1517.588
616.060	1509.975
616.188	1506.487
616.316	1501.412
616.444	1510.353
616.572	1508.403
616.700	1523.563
616.828	1540.042
616.956	1531.706
617.085	1545.697
617.213	1529.933
617.341	1530.571
617.469	1538.529
617.597	1548.689
617.725	1552.193
617.853	1542.891
617.981	1553.672
618.110	1565.311
618.238	1566.714
618.366	1585.252
618.494	1580.756
618.622	1573.782
618.750	1581.269
618.878	1576.412
619.006	1586.504
619.135	1602.630
619.263	1597.185
619.391	1586.261
619.519	1603.101
619.647	1615.840
619.775	1604.723
619.903	1622.891
620.031	1625.395
620.160	1635.193
620.288	1624.933
620.416	1649.605
620.544	1641.185
620.672	1647.689
620.800	1656.479
620.928	1661.496
621.056	1647.244
621.185	1657.151
621.313	1657.571
621.441	1681.487
621.569	1688.689
621.697	1685.378
621.825	1692.622
621.953	1690.479
622.081	1700.866
622.210	1693.647
622.338	1710.622
622.466	1702.899
622.594	1719.798
622.722	1717.672
622.850	1737.437
622.978	1736.387
623.106	1730.697
623.235	1739.824
623.363	1743.681
623.491	1739.076
623.619	1734.084
623.747	1737.076
623.875	1757.118
624.003	1751.193
624.131	1751.655
624.260	1732.782
624.388	1776.689
624.516	1782.605
624.644	1755.345
624.772	1772.866
624.900	1783.336
625.028	1757.387
625.156	1796.042
625.285	1767.555
625.413	1783.429
625.541	1776.748
625.669	1778.655
625.797	1783.840
625.925	1789.109
626.053	1784.664
626.181	1799.042
626.310	1792.538
626.438	1791.218
626.566	1794.118
626.694	1806.395
626.822	1797.916
626.950	1813.429
627.078	1816.252
627.206	1809.731
627.335	1821.429
627.463	1814.630
627.591	1814.445
627.719	1815.866
627.847	1832.160
627.975	1829.681
628.103	1821.882
628.231	1845.933
628.360	1817.210
628.488	1824.874
628.616	1831.235
628.744	1816.345
628.872	1825.487
629.000	1816.924
629.128	1824.983
629.256	1847.563
629.385	1839.899
629.513	1827.202
629.641	1853.714
629.769	1838.042
629.897	1847.395
630.025	1837.227
630.153	1857.849
630.281	1839.471
630.410	1837.269
630.538	1864.151
630.666	1851.723
630.794	1841.975
630.922	1851.748
631.050	1841.050
631.178	1856.941
631.306	1855.202
631.435	1854.622
631.563	1870.420
631.691	1845.782
631.819	1860.706
631.947	1867.647
632.075	1868.773
632.203	1870.941
632.331	1862.277
632.460	1861.454
632.588	1873.134
632.716	1877.303
632.844	1873.504
632.972	1863.790
633.100	1870.328
633.228	1884.143
633.356	1861.143
633.485	1868.345
633.613	1887.210
633.741	1874.714
633.869	1870.395
633.997	1877.395
634.125	1879.529
634.253	1870.353
634.381	1867.697
634.510	1879.916
634.638	1860.311
634.766	1867.756
634.894	1865.445
635.022	1860.739
635.150	1861.840
635.278	1885.395
635.406	1873.370
635.535	1883.387
635.663	1883.311
635.791	1860.370
635.919	1881.193
636.047	1872.597
636.175	1858.210
636.303	1880.941
636.431	1882.403
636.560	1875.832
636.688	1871.151
636.816	1878.118
636.944	1868.017
637.072	1892.454
637.200	1874.143
637.328	1868.807
637.456	1873.689
637.585	1872.798
637.713	1885.294
637.841	1864.025
637.969	1875.353
638.097	1880.958
638.225	1883.950
638.353	1892.622
638.481	1885.639
638.610	1889.765
638.738	1895.672
638.866	1883.151
638.994	1888.857
639.122	1885.277
639.250	1892.042
639.378	1892.513
639.506	1868.714
639.635	1891.941
639.763	1873.185
639.891	1890.235
640.019	1902.370
640.147	1894.160
640.275	1886.445
640.403	1890.798
640.531	1875.672
640.660	1889.185
640.788	1904.487
640.916	1895.908
641.044	1909.933
641.172	1897.244
641.300	1909.008
641.428	1920.387
641.556	1920.832
641.685	1907.513
641.813	1900.067
641.941	1912.992
642.069	1911.462
642.197	1909.622
642.325	1906.714
642.453	1912.235
642.581	1936.076
642.710	1916.966
642.838	1934.840
642.966	1933.328
643.094	1924.067
643.222	1924.605
643.350	1924.151
643.478	1926.395
643.606	1926.739
643.735	1926.487
643.863	1912.261
643.991	1937.563
644.119	1923.319
644.247	1926.975
644.375	1930.908
644.503	1939.328
644.631	1941.437
644.760	1938.664
644.888	1945.496
645.016	1935.697
645.144	1959.479
645.272	1923.622
645.400	1942.311
645.528	1928.378
645.656	1918.655
645.785	1928.882
645.913	1943.681
646.041	1940.992
646.169	1919.672
646.297	1918.647
646.425	1940.328
646.553	1905.697
646.681	1925.042
646.810	1920.437
646.938	1949.529
647.066	1914.303
647.194	1915.118
647.322	1918.647
647.450	1897.471
647.578	1922.992
647.706	1903.462
647.835	1919.218
647.963	1894.126
648.091	1909.168
648.219	1904.487
648.347	1894.454
648.475	1895.345
648.603	1889.479
648.731	1902.185
648.860	1876.151
648.988	1891.336
649.116	1888.345
649.244	1870.580
649.372	1865.723
649.500	1872.084
649.628	1866.563
649.756	1859.118
649.885	1859.034
650.013	1850.941
650.141	1846.697
650.269	1832.723
650.397	1837.008
650.525	1841.613
650.653	1833.891
650.781	1839.403
650.910	1819.975
651.038	1816.697
651.166	1813.345
651.294	1809.992
651.422	1796.176
651.550	1796.723
651.678	1785.689
651.806	1790.933
651.935	1801.891
652.063	1773.824
652.191	1786.017
652.319	1778.445
652.447	1763.555
652.575	1752.412
652.703	1739.891
652.831	1756.437
652.960	1744.824
653.088	1744.353
653.216	1726.134
653.344	1736.218
653.472	1736.714
653.600	1732.462
653.728	1729.773
653.856	1714.748
653.985	1725.874
654.113	1715.008
654.241	1717.143
654.369	1700.059
654.497	1721.521
654.625	1703.807
654.753	1703.471
654.881	1703.916
655.010	1695.252
655.138	1696.059
655.266	1692.765
655.394	1673.941
655.522	1677.008
655.650	1669.445
655.778	1682.429
655.906	1676.807
656.035	1671.521
656.163	1661.387
656.291	1665.328
656.419	1662.378
656.547	1661.412
656.675	1649.496
656.803	1655.277
656.931	1649.261
657.060	1652.849
657.188	1641.908
657.316	1645.109
657.444	1655.311
657.572	1639.891
657.700	1631.605
657.828	1633.748
657.956	1635.597
658.085	1642.303
658.213	1624.975
658.341	1622.714
658.469	1630.336
658.597	1628.429
658.725	1632.857
658.853	1610.824
658.981	1603.782
659.110	1603.143
659.238	1614.109
659.366	1604.328
659.494	1592.807
659.622	1601.882
659.750	1590.076
659.878	1595.361
660.006	1599.227
660.135	1590.563
660.263	1590.269
660.391	1583.588
660.519	1587.739
660.647	1575.597
660.775	1580.773
660.903	1568.563
