70-120-unpol_at_679.99nm_cut_at_1283.50Y_01.dat
24.01.2024
11:33:27
cut middle at Y: 1283.50
top cursor: 1343 down cursor: 1224 mean of: 119 lines , 2560 datapoints
wavelength(nm)	intensity[arb. units]
515.994	1122.899
516.122	1064.118
516.250	1054.210
516.378	1023.739
516.506	1045.605
516.635	1040.714
516.763	1059.588
516.891	1059.387
517.019	1057.689
517.147	1065.992
517.275	1056.546
517.403	1061.218
517.531	1054.008
517.660	1048.798
517.788	1063.445
517.916	1070.042
518.044	1061.076
518.172	1062.840
518.300	1064.101
518.428	1059.336
518.556	1070.580
518.685	1074.487
518.813	1075.706
518.941	1091.563
519.069	1070.840
519.197	1074.429
519.325	1092.218
519.453	1091.311
519.581	1100.202
519.710	1085.723
519.838	1090.655
519.966	1090.908
520.094	1095.311
520.222	1099.798
520.350	1112.782
520.478	1115.328
520.606	1112.185
520.735	1118.882
520.863	1121.084
520.991	1130.303
521.119	1116.370
521.247	1123.126
521.375	1132.336
521.503	1136.664
521.631	1143.849
521.760	1149.731
521.888	1149.143
522.016	1155.294
522.144	1146.739
522.272	1154.076
522.400	1160.454
522.528	1168.639
522.656	1170.387
522.785	1170.739
522.913	1180.008
523.041	1180.000
523.169	1168.361
523.297	1171.109
523.425	1184.076
523.553	1181.143
523.681	1170.647
523.810	1194.546
523.938	1197.277
524.066	1181.874
524.194	1195.941
524.322	1193.437
524.450	1198.563
524.578	1184.176
524.706	1197.176
524.835	1189.857
524.963	1196.521
525.091	1178.891
525.219	1193.899
525.347	1185.739
525.475	1199.252
525.603	1199.261
525.731	1201.185
525.860	1201.992
525.988	1187.210
526.116	1190.286
526.244	1205.126
526.372	1194.462
526.500	1200.874
526.628	1218.563
526.756	1197.714
526.885	1211.966
527.013	1203.143
527.141	1207.496
527.269	1206.134
527.397	1217.319
527.525	1209.899
527.653	1206.815
527.781	1206.462
527.910	1222.655
528.038	1220.992
528.166	1233.899
528.294	1220.992
528.422	1213.235
528.550	1233.840
528.678	1227.555
528.806	1245.101
528.935	1241.588
529.063	1231.857
529.191	1232.462
529.319	1251.605
529.447	1252.227
529.575	1255.101
529.703	1257.908
529.831	1260.050
529.960	1251.891
530.088	1256.613
530.216	1267.319
530.344	1254.092
530.472	1257.899
530.600	1264.059
530.728	1273.496
530.856	1275.496
530.985	1269.008
531.113	1263.378
531.241	1281.143
531.369	1280.941
531.497	1280.370
531.625	1282.370
531.753	1270.345
531.881	1290.689
532.010	1287.471
532.138	1281.353
532.266	1282.328
532.394	1273.824
532.522	1276.933
532.650	1284.975
532.778	1282.269
532.906	1278.319
533.035	1289.613
533.163	1274.580
533.291	1274.126
533.419	1262.235
533.547	1279.756
533.675	1271.773
533.803	1270.050
533.931	1276.613
534.060	1282.739
534.188	1287.143
534.316	1287.370
534.444	1278.134
534.572	1292.866
534.700	1284.664
534.828	1276.227
534.956	1286.857
535.085	1291.361
535.213	1295.286
535.341	1301.538
535.469	1295.429
535.597	1305.134
535.725	1306.857
535.853	1320.471
535.981	1312.765
536.110	1326.790
536.238	1331.345
536.366	1330.092
536.494	1318.908
536.622	1329.378
536.750	1338.185
536.878	1337.983
537.006	1348.639
537.135	1352.815
537.263	1351.748
537.391	1373.580
537.519	1349.538
537.647	1373.916
537.775	1368.151
537.903	1377.555
538.031	1375.378
538.160	1380.622
538.288	1384.479
538.416	1383.655
538.544	1372.050
538.672	1393.529
538.800	1399.580
538.928	1391.437
539.056	1392.185
539.185	1405.714
539.313	1391.050
539.441	1398.244
539.569	1405.496
539.697	1409.303
539.825	1412.294
539.953	1407.697
540.081	1393.714
540.210	1408.874
540.338	1417.504
540.466	1412.966
540.594	1409.622
540.722	1400.538
540.850	1402.361
540.978	1407.647
541.106	1422.134
541.235	1425.479
541.363	1409.966
541.491	1412.924
541.619	1412.454
541.747	1404.092
541.875	1432.714
542.003	1406.689
542.131	1422.714
542.260	1422.218
542.388	1409.723
542.516	1428.017
542.644	1424.462
542.772	1429.319
542.900	1431.454
543.028	1438.857
543.156	1444.824
543.285	1441.269
543.413	1429.504
543.541	1438.185
543.669	1441.655
543.797	1445.294
543.925	1442.269
544.053	1455.697
544.181	1454.521
544.310	1434.739
544.438	1444.218
544.566	1450.378
544.694	1460.218
544.822	1458.185
544.950	1454.588
545.078	1446.782
545.206	1451.143
545.335	1472.092
545.463	1444.109
545.591	1464.445
545.719	1463.412
545.847	1456.782
545.975	1466.697
546.103	1451.723
546.231	1468.756
546.360	1467.412
546.488	1475.462
546.616	1474.815
546.744	1477.294
546.872	1469.109
547.000	1480.269
547.128	1475.924
547.256	1483.647
547.385	1474.101
547.513	1478.286
547.641	1476.706
547.769	1489.328
547.897	1480.286
548.025	1486.445
548.153	1485.370
548.281	1478.529
548.410	1493.513
548.538	1495.202
548.666	1491.235
548.794	1485.185
548.922	1494.622
549.050	1501.874
549.178	1496.017
549.306	1507.118
549.435	1519.613
549.563	1501.202
549.691	1497.529
549.819	1519.639
549.947	1513.294
550.075	1513.101
550.203	1502.050
550.331	1503.689
550.460	1512.630
550.588	1511.908
550.716	1528.908
550.844	1499.134
550.972	1509.571
551.100	1511.479
551.228	1513.193
551.356	1500.118
551.485	1505.748
551.613	1499.655
551.741	1497.765
551.869	1493.471
551.997	1493.202
552.125	1491.429
552.253	1497.496
552.381	1491.950
552.510	1482.294
552.638	1478.756
552.766	1490.756
552.894	1483.824
553.022	1487.185
553.150	1481.941
553.278	1480.899
553.406	1483.403
553.535	1481.966
553.663	1472.378
553.791	1477.471
553.919	1472.008
554.047	1489.529
554.175	1475.723
554.303	1474.571
554.431	1468.008
554.560	1487.042
554.688	1480.294
554.816	1488.269
554.944	1476.563
555.072	1481.782
555.200	1492.983
555.328	1478.017
555.456	1493.151
555.585	1491.580
555.713	1490.345
555.841	1501.202
555.969	1493.395
556.097	1498.706
556.225	1503.395
556.353	1511.471
556.481	1496.185
556.610	1518.538
556.738	1525.000
556.866	1526.924
556.994	1507.000
557.122	1509.370
557.250	1534.303
557.378	1532.563
557.506	1526.580
557.635	1534.479
557.763	1520.899
557.891	1539.832
558.019	1532.235
558.147	1546.849
558.275	1540.697
558.403	1553.319
558.531	1538.756
558.660	1543.790
558.788	1545.563
558.916	1556.218
559.044	1545.739
559.172	1556.832
559.300	1563.891
559.428	1560.437
559.556	1562.941
559.685	1560.067
559.813	1555.445
559.941	1560.370
560.069	1569.277
560.197	1562.471
560.325	1562.126
560.453	1566.294
560.581	1563.983
560.710	1567.151
560.838	1572.151
560.966	1570.765
561.094	1587.992
561.222	1567.933
561.350	1554.496
561.478	1558.277
561.606	1563.597
561.735	1559.008
561.863	1557.412
561.991	1562.723
562.119	1560.429
562.247	1567.681
562.375	1569.244
562.503	1561.067
562.631	1564.008
562.760	1560.706
562.888	1562.706
563.016	1561.420
563.144	1557.899
563.272	1563.807
563.400	1546.471
563.528	1547.235
563.656	1559.983
563.785	1567.630
563.913	1553.000
564.041	1556.151
564.169	1560.277
564.297	1568.966
564.425	1564.319
564.553	1579.672
564.681	1569.311
564.810	1562.908
564.938	1571.345
565.066	1575.420
565.194	1586.462
565.322	1586.798
565.450	1583.118
565.578	1589.160
565.706	1588.966
565.835	1588.916
565.963	1591.269
566.091	1581.378
566.219	1597.294
566.347	1594.807
566.475	1600.437
566.603	1600.647
566.731	1610.336
566.860	1616.807
566.988	1602.092
567.116	1631.361
567.244	1619.126
567.372	1625.782
567.500	1630.992
567.628	1632.311
567.756	1624.622
567.885	1643.555
568.013	1653.765
568.141	1648.639
568.269	1653.908
568.397	1646.328
568.525	1647.261
568.653	1667.378
568.781	1667.655
568.910	1694.235
569.038	1682.252
569.166	1666.546
569.294	1681.277
569.422	1688.689
569.550	1671.992
569.678	1693.084
569.806	1687.185
569.935	1699.588
570.063	1712.992
570.191	1715.731
570.319	1711.538
570.447	1710.950
570.575	1718.857
570.703	1727.899
570.831	1727.622
570.960	1727.092
571.088	1732.025
571.216	1735.210
571.344	1738.790
571.472	1740.101
571.600	1753.655
571.728	1745.134
571.856	1748.412
571.985	1761.126
572.113	1757.370
572.241	1762.143
572.369	1773.706
572.497	1782.723
572.625	1778.471
572.753	1761.714
572.881	1773.235
573.010	1771.958
573.138	1801.437
573.266	1802.378
573.394	1803.588
573.522	1798.857
573.650	1800.050
573.778	1796.706
573.906	1802.059
574.035	1792.487
574.163	1806.261
574.291	1803.353
574.419	1812.689
574.547	1822.395
574.675	1820.185
574.803	1812.176
574.931	1806.261
575.060	1834.059
575.188	1818.134
575.316	1818.244
575.444	1830.067
575.572	1835.437
575.700	1805.319
575.828	1837.487
575.956	1850.487
576.085	1828.328
576.213	1839.353
576.341	1830.723
576.469	1853.244
576.597	1824.739
576.725	1830.445
576.853	1832.134
576.981	1825.319
577.110	1828.445
577.238	1855.126
577.366	1842.294
577.494	1830.395
577.622	1838.277
577.750	1847.336
577.878	1832.454
578.006	1866.739
578.135	1837.168
578.263	1834.395
578.391	1852.042
578.519	1852.017
578.647	1864.479
578.775	1851.639
578.903	1832.723
579.031	1866.849
579.160	1855.555
579.288	1853.429
579.416	1843.328
579.544	1857.874
579.672	1871.420
579.800	1876.504
579.928	1852.824
580.056	1849.681
580.185	1851.042
580.313	1869.101
580.441	1877.244
580.569	1868.034
580.697	1865.244
580.825	1882.975
580.953	1893.857
581.081	1893.908
581.210	1896.277
581.338	1920.546
581.466	1909.840
581.594	1915.782
581.722	1904.798
581.850	1916.378
581.978	1923.513
582.106	1920.252
582.235	1942.958
582.363	1921.807
582.491	1925.807
582.619	1935.025
582.747	1945.227
582.875	1948.328
583.003	1966.866
583.131	1971.059
583.260	1969.513
583.388	1981.538
583.516	1987.513
583.644	1987.294
583.772	2001.983
583.900	2015.420
584.028	2017.723
584.156	2011.605
584.285	2022.681
584.413	2018.025
584.541	2037.958
584.669	2040.571
584.797	2050.798
584.925	2049.353
585.053	2064.672
585.181	2061.857
585.310	2075.941
585.438	2081.008
585.566	2078.403
585.694	2105.227
585.822	2102.118
585.950	2098.143
586.078	2126.882
586.206	2126.487
586.335	2125.134
586.463	2132.605
586.591	2146.563
586.719	2148.109
586.847	2150.723
586.975	2166.580
587.103	2164.395
587.231	2150.916
587.360	2176.815
587.488	2168.109
587.616	2188.202
587.744	2183.664
587.872	2185.513
588.000	2183.941
588.128	2209.613
588.256	2214.387
588.385	2188.059
588.513	2202.261
588.641	2204.345
588.769	2228.958
588.897	2207.790
589.025	2210.630
589.153	2211.235
589.281	2206.966
589.410	2228.403
589.538	2226.261
589.666	2232.966
589.794	2240.765
589.922	2247.891
590.050	2258.891
590.178	2224.412
590.306	2238.134
590.435	2243.487
590.563	2238.471
590.691	2257.311
590.819	2256.176
590.947	2285.622
591.075	2254.445
591.203	2277.000
591.331	2274.908
591.460	2279.899
591.588	2276.748
591.716	2289.630
591.844	2286.529
591.972	2303.941
592.100	2295.277
592.228	2290.513
592.356	2300.664
592.485	2285.891
592.613	2301.403
592.741	2337.462
592.869	2307.840
592.997	2327.084
593.125	2325.109
593.253	2349.277
593.381	2348.168
593.510	2356.151
593.638	2350.445
593.766	2362.773
593.894	2362.403
594.022	2369.412
594.150	2369.605
594.278	2397.832
594.406	2385.185
594.535	2377.639
594.663	2389.992
594.791	2389.563
594.919	2401.723
595.047	2422.269
595.175	2421.227
595.303	2421.622
595.431	2435.353
595.560	2466.689
595.688	2440.782
595.816	2473.933
595.944	2451.857
596.072	2451.067
596.200	2468.218
596.328	2472.950
596.456	2469.513
596.585	2464.513
596.713	2482.580
596.841	2510.437
596.969	2483.824
597.097	2505.227
597.225	2513.857
597.353	2517.277
597.481	2532.050
597.610	2522.176
597.738	2571.345
597.866	2555.706
597.994	2547.042
598.122	2575.756
598.250	2596.605
598.378	2564.664
598.506	2555.790
598.635	2601.933
598.763	2588.168
598.891	2615.697
599.019	2602.244
599.147	2626.210
599.275	2596.210
599.403	2658.378
599.531	2644.101
599.660	2630.790
599.788	2648.303
599.916	2651.210
600.044	2706.639
600.172	2655.328
600.300	2668.134
600.428	2655.815
600.556	2676.924
600.685	2765.378
600.813	2700.857
600.941	2710.655
601.069	2705.092
601.197	2693.185
601.325	2717.815
601.453	2707.210
601.581	2739.261
601.710	2764.571
601.838	2761.252
601.966	2839.311
602.094	2835.378
602.222	2788.319
602.350	2772.353
602.478	2797.227
602.606	2855.739
602.735	2792.395
602.863	2840.849
602.991	2850.849
603.119	2813.832
603.247	2835.378
603.375	2857.840
603.503	2879.975
603.631	2903.941
603.760	2905.420
603.888	2921.647
604.016	2891.958
604.144	2896.672
604.272	2938.504
604.400	2949.529
604.528	2959.479
604.656	2967.916
604.785	2976.454
604.913	3015.403
605.041	2955.588
605.169	3014.176
605.297	3003.395
605.425	2994.706
605.553	3031.387
605.681	3019.672
605.810	3061.824
605.938	3060.134
606.066	3050.353
606.194	3083.555
606.322	3064.454
606.450	3086.370
606.578	3052.504
606.706	3101.992
606.835	3111.824
606.963	3154.387
607.091	3152.891
607.219	3106.042
607.347	3094.891
607.475	3158.639
607.603	3111.815
607.731	3106.420
607.860	3134.336
607.988	3151.403
608.116	3192.059
608.244	3144.639
608.372	3192.773
608.500	3168.429
608.628	3148.294
608.756	3163.420
608.885	3204.563
609.013	3167.748
609.141	3171.126
609.269	3135.378
609.397	3164.277
609.525	3187.790
609.653	3224.924
609.781	3186.496
609.910	3201.563
610.038	3288.067
610.166	3217.261
610.294	3201.597
610.422	3197.034
610.550	3197.782
610.678	3218.739
610.806	3217.168
610.935	3202.824
611.063	3230.471
611.191	3253.765
611.319	3237.739
611.447	3237.756
611.575	3212.555
611.703	3213.950
611.831	3247.941
611.960	3233.983
612.088	3261.647
612.216	3234.277
612.344	3252.000
612.472	3281.950
612.600	3287.765
612.728	3264.571
612.856	3255.429
612.985	3257.151
613.113	3298.462
613.241	3307.202
613.369	3270.756
613.497	3284.084
613.625	3306.857
613.753	3306.050
613.881	3311.202
614.010	3281.420
614.138	3334.387
614.266	3335.580
614.394	3343.748
614.522	3359.672
614.650	3331.681
614.778	3364.681
614.906	3335.462
615.035	3376.950
615.163	3346.336
615.291	3409.723
615.419	3378.933
615.547	3364.412
615.675	3384.420
615.803	3442.479
615.931	3412.403
616.060	3406.529
616.188	3430.723
616.316	3452.941
616.444	3406.092
616.572	3455.773
616.700	3478.723
616.828	3442.748
616.956	3500.050
617.085	3464.538
617.213	3482.613
617.341	3484.866
617.469	3563.672
617.597	3491.597
617.725	3480.210
617.853	3495.933
617.981	3520.958
618.110	3562.529
618.238	3561.513
618.366	3537.252
618.494	3549.378
618.622	3556.126
618.750	3633.857
618.878	3607.992
619.006	3609.042
619.135	3653.210
619.263	3615.101
619.391	3628.479
619.519	3638.933
619.647	3705.395
619.775	3677.244
619.903	3692.504
620.031	3655.143
620.160	3673.824
620.288	3718.681
620.416	3716.210
620.544	3713.277
620.672	3737.529
620.800	3768.210
620.928	3762.966
621.056	3829.723
621.185	3768.118
621.313	3762.563
621.441	3790.059
621.569	3814.798
621.697	3826.017
621.825	3847.504
621.953	3845.025
622.081	3876.664
622.210	3854.168
622.338	3885.866
622.466	3898.143
622.594	3906.050
622.722	3868.891
622.850	3934.613
622.978	3967.462
623.106	3971.403
623.235	3947.882
623.363	3973.479
623.491	3946.151
623.619	4002.050
623.747	3966.067
623.875	3999.513
624.003	3974.773
624.131	4022.042
624.260	4033.824
624.388	3994.933
624.516	4035.370
624.644	4023.185
624.772	4022.924
624.900	4009.176
625.028	4056.311
625.156	4030.496
625.285	4099.849
625.413	4085.328
625.541	4051.555
625.669	4086.563
625.797	4088.992
625.925	4090.613
626.053	4099.202
626.181	4098.034
626.310	4174.269
626.438	4080.681
626.566	4128.403
626.694	4111.437
626.822	4110.958
626.950	4166.244
627.078	4114.765
627.206	4141.689
627.335	4139.706
627.463	4144.992
627.591	4175.479
627.719	4224.361
627.847	4169.050
627.975	4185.008
628.103	4199.622
628.231	4206.202
628.360	4190.328
628.488	4206.689
628.616	4194.017
628.744	4207.588
628.872	4227.739
629.000	4210.471
629.128	4218.681
629.256	4198.731
629.385	4213.336
629.513	4196.807
629.641	4241.639
629.769	4288.824
629.897	4256.378
630.025	4226.588
630.153	4282.866
630.281	4262.303
630.410	4257.824
630.538	4257.345
630.666	4277.975
630.794	4268.017
630.922	4312.546
631.050	4274.874
631.178	4281.328
631.306	4281.891
631.435	4274.286
631.563	4301.067
631.691	4337.605
631.819	4392.076
631.947	4279.664
632.075	4275.655
632.203	4346.134
632.331	4323.487
632.460	4317.857
632.588	4314.345
632.716	4325.529
632.844	4384.689
632.972	4295.916
633.100	4312.387
633.228	4339.269
633.356	4345.092
633.485	4334.395
633.613	4354.958
633.741	4356.958
633.869	4340.975
633.997	4352.319
634.125	4415.546
634.253	4370.084
634.381	4393.328
634.510	4394.471
634.638	4388.950
634.766	4436.630
634.894	4396.092
635.022	4380.622
635.150	4368.857
635.278	4395.361
635.406	4380.706
635.535	4374.546
635.663	4418.983
635.791	4338.395
635.919	4366.403
636.047	4387.286
636.175	4382.059
636.303	4363.706
636.431	4402.622
636.560	4400.815
636.688	4374.992
636.816	4399.303
636.944	4397.899
637.072	4394.790
637.200	4393.588
637.328	4399.765
637.456	4372.176
637.585	4385.361
637.713	4400.597
637.841	4399.899
637.969	4402.908
638.097	4406.924
638.225	4413.874
638.353	4409.387
638.481	4423.202
638.610	4412.017
638.738	4426.319
638.866	4401.756
638.994	4437.874
639.122	4402.471
639.250	4416.924
639.378	4465.647
639.506	4426.050
639.635	4446.504
639.763	4411.571
639.891	4463.874
640.019	4462.613
640.147	4484.571
640.275	4438.092
640.403	4441.412
640.531	4520.874
640.660	4475.168
640.788	4532.975
640.916	4489.160
641.044	4493.445
641.172	4479.168
641.300	4513.101
641.428	4502.101
641.556	4510.118
641.685	4519.613
641.813	4508.697
641.941	4524.479
642.069	4540.084
642.197	4564.210
642.325	4551.630
642.453	4518.924
642.581	4619.916
642.710	4509.261
642.838	4553.521
642.966	4552.496
643.094	4566.672
643.222	4558.882
643.350	4570.008
643.478	4600.933
643.606	4583.109
643.735	4536.933
643.863	4592.261
643.991	4593.151
644.119	4585.294
644.247	4610.420
644.375	4580.319
644.503	4604.613
644.631	4628.311
644.760	4630.681
644.888	4619.933
645.016	4645.311
645.144	4622.361
645.272	4587.807
645.400	4631.546
645.528	4635.008
645.656	4622.983
645.785	4637.025
645.913	4691.798
646.041	4635.193
646.169	4703.782
646.297	4617.420
646.425	4659.916
646.553	4620.395
646.681	4621.739
646.810	4639.580
646.938	4610.420
647.066	4596.034
647.194	4688.874
647.322	4611.866
647.450	4604.647
647.578	4620.782
647.706	4580.084
647.835	4601.361
647.963	4631.454
648.091	4572.605
648.219	4634.983
648.347	4661.387
648.475	4585.748
648.603	4586.866
648.731	4561.891
648.860	4580.790
648.988	4573.034
649.116	4554.462
649.244	4553.000
649.372	4571.891
649.500	4556.765
649.628	4580.546
649.756	4562.647
649.885	4531.992
650.013	4500.143
650.141	4497.319
650.269	4483.269
650.397	4472.689
650.525	4451.597
650.653	4522.739
650.781	4488.672
650.910	4468.782
651.038	4420.950
651.166	4424.655
651.294	4426.689
651.422	4405.034
651.550	4373.824
651.678	4414.277
651.806	4396.513
651.935	4383.714
652.063	4378.992
652.191	4352.521
652.319	4342.210
652.447	4356.630
652.575	4337.613
652.703	4354.496
652.831	4348.479
652.960	4312.798
653.088	4333.017
653.216	4319.261
653.344	4321.832
653.472	4316.950
653.600	4286.689
653.728	4278.840
653.856	4284.429
653.985	4270.286
654.113	4254.487
654.241	4255.748
654.369	4241.664
654.497	4279.294
654.625	4251.647
654.753	4219.294
654.881	4256.933
655.010	4294.193
655.138	4207.933
655.266	4223.605
655.394	4219.857
655.522	4245.244
655.650	4187.513
655.778	4258.756
655.906	4188.210
656.035	4152.563
656.163	4160.286
656.291	4158.017
656.419	4165.134
656.547	4135.857
656.675	4149.790
