70-110-90_at_679.99nm_cut_at_1283.50Y_01.dat
24.01.2024
11:31:53
cut middle at Y: 1283.50
top cursor: 1343 down cursor: 1224 mean of: 119 lines , 2560 datapoints
wavelength(nm)	intensity[arb. units]
515.994	544.807
516.122	517.706
516.250	502.840
516.378	502.790
516.506	501.714
516.635	496.471
516.763	505.227
516.891	507.504
517.019	507.908
517.147	506.429
517.275	509.891
517.403	506.790
517.531	506.882
517.660	508.807
517.788	507.874
517.916	507.546
518.044	502.580
518.172	508.387
518.300	504.941
518.428	507.832
518.556	510.504
518.685	512.311
518.813	514.336
518.941	515.151
519.069	507.983
519.197	510.303
519.325	515.824
519.453	516.412
519.581	515.202
519.710	517.319
519.838	518.361
519.966	515.387
520.094	522.261
520.222	517.370
520.350	524.664
520.478	526.639
520.606	531.639
520.735	524.269
520.863	528.756
520.991	520.941
521.119	528.655
521.247	531.664
521.375	529.824
521.503	532.328
521.631	537.092
521.760	531.185
521.888	538.084
522.016	536.420
522.144	535.269
522.272	537.824
522.400	537.429
522.528	539.504
522.656	539.286
522.785	543.361
522.913	543.555
523.041	537.487
523.169	537.126
523.297	542.319
523.425	541.899
523.553	545.261
523.681	540.639
523.810	546.639
523.938	546.613
524.066	542.168
524.194	544.546
524.322	548.815
524.450	550.697
524.578	542.832
524.706	552.227
524.835	544.748
524.963	549.277
525.091	544.370
525.219	547.067
525.347	539.866
525.475	547.891
525.603	552.748
525.731	546.361
525.860	549.328
525.988	544.857
526.116	543.059
526.244	549.899
526.372	541.261
526.500	550.185
526.628	549.832
526.756	546.487
526.885	544.933
527.013	550.252
527.141	548.840
527.269	550.294
527.397	554.370
527.525	559.168
527.653	549.479
527.781	541.546
527.910	548.681
528.038	552.429
528.166	554.176
528.294	556.992
528.422	556.597
528.550	560.454
528.678	557.748
528.806	556.773
528.935	560.924
529.063	557.513
529.191	564.101
529.319	561.370
529.447	564.042
529.575	566.176
529.703	563.168
529.831	564.672
529.960	565.176
530.088	564.706
530.216	568.412
530.344	564.513
530.472	568.479
530.600	569.176
530.728	570.958
530.856	574.160
530.985	569.924
531.113	567.714
531.241	571.916
531.369	575.437
531.497	572.403
531.625	575.571
531.753	567.588
531.881	575.571
532.010	574.513
532.138	569.546
532.266	572.286
532.394	568.975
532.522	565.597
532.650	573.588
532.778	575.739
532.906	571.958
533.035	572.118
533.163	570.319
533.291	573.277
533.419	566.353
533.547	572.319
533.675	571.244
533.803	564.975
533.931	568.000
534.060	581.471
534.188	569.882
534.316	579.101
534.444	572.647
534.572	570.151
534.700	571.361
534.828	571.765
534.956	576.950
535.085	568.924
535.213	574.227
535.341	574.303
535.469	568.739
535.597	574.571
535.725	576.286
535.853	580.092
535.981	578.529
536.110	585.731
536.238	583.185
536.366	590.496
536.494	576.513
536.622	588.395
536.750	590.739
536.878	590.395
537.006	595.218
537.135	589.975
537.263	592.000
537.391	596.706
537.519	590.403
537.647	600.672
537.775	594.319
537.903	594.261
538.031	597.790
538.160	597.303
538.288	603.546
538.416	602.765
538.544	600.496
538.672	600.504
538.800	606.756
538.928	606.647
539.056	604.328
539.185	607.714
539.313	601.723
539.441	603.420
539.569	605.134
539.697	603.950
539.825	614.076
539.953	609.193
540.081	601.235
540.210	601.924
540.338	605.605
540.466	613.025
540.594	609.017
540.722	606.017
540.850	607.899
540.978	607.874
541.106	616.840
541.235	608.882
541.363	602.798
541.491	614.908
541.619	607.756
541.747	609.916
541.875	612.101
542.003	606.345
542.131	611.538
542.260	615.513
542.388	606.672
542.516	605.143
542.644	612.462
542.772	607.765
542.900	604.975
543.028	613.496
543.156	610.025
543.285	613.983
543.413	607.277
543.541	613.580
543.669	608.059
543.797	613.672
543.925	617.891
544.053	614.966
544.181	615.613
544.310	613.941
544.438	608.042
544.566	616.639
544.694	619.529
544.822	620.143
544.950	619.479
545.078	614.277
545.206	618.101
545.335	618.437
545.463	616.067
545.591	614.084
545.719	623.067
545.847	621.311
545.975	623.958
546.103	616.908
546.231	617.487
546.360	623.782
546.488	623.109
546.616	629.655
546.744	627.227
546.872	628.714
547.000	626.445
547.128	622.462
547.256	624.252
547.385	628.933
547.513	626.227
547.641	627.933
547.769	632.555
547.897	628.824
548.025	631.874
548.153	632.445
548.281	621.950
548.410	630.008
548.538	631.773
548.666	632.185
548.794	632.143
548.922	636.866
549.050	634.218
549.178	629.992
549.306	635.958
549.435	640.277
549.563	635.008
549.691	628.874
549.819	641.185
549.947	639.084
550.075	633.504
550.203	627.714
550.331	628.739
550.460	636.866
550.588	630.840
550.716	637.580
550.844	635.445
550.972	630.050
551.100	631.647
551.228	637.336
551.356	627.118
551.485	635.798
551.613	627.008
551.741	631.361
551.869	628.975
551.997	622.277
552.125	623.655
552.253	621.983
552.381	618.134
552.510	623.218
552.638	613.092
552.766	621.252
552.894	620.412
553.022	625.840
553.150	619.227
553.278	615.303
553.406	621.908
553.535	610.975
553.663	618.857
553.791	619.244
553.919	615.017
554.047	623.555
554.175	616.084
554.303	615.824
554.431	613.605
554.560	612.050
554.688	622.681
554.816	618.824
554.944	618.983
555.072	618.555
555.200	621.328
555.328	620.689
555.456	627.588
555.585	618.571
555.713	620.866
555.841	620.739
555.969	622.933
556.097	629.185
556.225	631.269
556.353	628.076
556.481	631.454
556.610	634.983
556.738	638.924
556.866	638.681
556.994	631.218
557.122	631.084
557.250	630.866
557.378	637.513
557.506	632.084
557.635	639.840
557.763	631.143
557.891	642.756
558.019	640.824
558.147	637.941
558.275	641.681
558.403	652.311
558.531	646.387
558.660	641.244
558.788	642.479
558.916	643.176
559.044	635.975
559.172	647.765
559.300	654.529
559.428	646.294
559.556	651.353
559.685	649.941
559.813	650.664
559.941	652.336
560.069	656.622
560.197	651.555
560.325	657.151
560.453	647.790
560.581	652.538
560.710	647.714
560.838	651.336
560.966	651.017
561.094	657.378
561.222	655.916
561.350	652.798
561.478	642.672
561.606	656.303
561.735	653.118
561.863	650.252
561.991	651.261
562.119	654.689
562.247	653.739
562.375	660.294
562.503	656.336
562.631	650.277
562.760	653.857
562.888	646.269
563.016	655.235
563.144	653.134
563.272	659.429
563.400	648.840
563.528	648.277
563.656	655.084
563.785	649.756
563.913	652.706
564.041	642.017
564.169	644.277
564.297	648.655
564.425	649.143
564.553	654.630
564.681	649.504
564.810	649.622
564.938	658.277
565.066	649.613
565.194	651.521
565.322	654.504
565.450	650.202
565.578	657.731
565.706	655.866
565.835	655.571
565.963	653.277
566.091	656.378
566.219	660.597
566.347	651.017
566.475	660.244
566.603	656.487
566.731	665.059
566.860	663.580
566.988	664.454
567.116	666.916
567.244	668.059
567.372	670.050
567.500	671.437
567.628	665.681
567.756	669.076
567.885	675.597
568.013	672.227
568.141	672.269
568.269	675.681
568.397	674.076
568.525	681.420
568.653	683.185
568.781	682.824
568.910	688.697
569.038	697.303
569.166	685.866
569.294	684.244
569.422	690.815
569.550	691.933
569.678	689.151
569.806	697.336
569.935	698.950
570.063	697.723
570.191	705.067
570.319	702.067
570.447	702.017
570.575	701.445
570.703	705.731
570.831	707.193
570.960	706.529
571.088	706.261
571.216	714.429
571.344	715.118
571.472	713.748
571.600	724.538
571.728	719.681
571.856	712.370
571.985	719.849
572.113	723.479
572.241	727.521
572.369	722.874
572.497	721.319
572.625	728.891
572.753	720.269
572.881	732.950
573.010	730.000
573.138	733.252
573.266	727.504
573.394	738.832
573.522	735.672
573.650	735.176
573.778	732.916
573.906	728.513
574.035	735.252
574.163	729.824
574.291	738.983
574.419	735.563
574.547	742.496
574.675	739.151
574.803	741.227
574.931	736.210
575.060	742.437
575.188	744.571
575.316	746.244
575.444	741.269
575.572	747.479
575.700	733.555
575.828	748.672
575.956	746.143
576.085	737.361
576.213	746.840
576.341	738.798
576.469	747.000
576.597	744.118
576.725	741.261
576.853	738.899
576.981	735.218
577.110	736.983
577.238	745.504
577.366	737.588
577.494	744.378
577.622	743.160
577.750	744.588
577.878	743.622
578.006	747.286
578.135	744.950
578.263	743.202
578.391	751.950
578.519	748.025
578.647	748.462
578.775	743.975
578.903	742.487
579.031	742.059
579.160	746.647
579.288	740.975
579.416	750.882
579.544	739.134
579.672	754.210
579.800	758.958
579.928	751.689
580.056	751.345
580.185	743.050
580.313	748.647
580.441	755.487
580.569	750.874
580.697	742.832
580.825	754.429
580.953	759.353
581.081	751.387
581.210	761.664
581.338	761.101
581.466	764.151
581.594	770.202
581.722	766.849
581.850	765.235
581.978	768.059
582.106	769.538
582.235	768.025
582.363	767.370
582.491	769.975
582.619	770.882
582.747	779.311
582.875	782.479
583.003	782.076
583.131	784.655
583.260	777.866
583.388	790.462
583.516	791.765
583.644	791.815
583.772	798.353
583.900	802.185
584.028	801.555
584.156	800.345
584.285	808.336
584.413	799.597
584.541	812.504
584.669	817.849
584.797	815.387
584.925	812.202
585.053	819.941
585.181	822.681
585.310	823.807
585.438	821.143
585.566	823.059
585.694	837.101
585.822	838.118
585.950	831.328
586.078	839.504
586.206	848.084
586.335	837.403
586.463	843.882
586.591	856.101
586.719	846.034
586.847	855.908
586.975	852.538
587.103	853.941
587.231	857.176
587.360	859.050
587.488	856.101
587.616	861.076
587.744	868.782
587.872	862.597
588.000	860.050
588.128	871.412
588.256	873.588
588.385	869.597
588.513	873.706
588.641	870.933
588.769	876.092
588.897	874.252
589.025	866.849
589.153	872.773
589.281	878.697
589.410	879.134
589.538	884.092
589.666	882.513
589.794	883.496
589.922	893.496
590.050	889.807
590.178	876.420
590.306	886.630
590.435	883.202
590.563	880.647
590.691	894.025
590.819	888.748
590.947	904.361
591.075	889.496
591.203	894.403
591.331	895.193
591.460	900.403
591.588	901.613
591.716	912.891
591.844	909.076
591.972	905.513
592.100	904.160
592.228	909.782
592.356	908.857
592.485	903.042
592.613	909.034
592.741	915.496
592.869	911.420
592.997	923.866
593.125	924.992
593.253	926.227
593.381	919.479
593.510	929.672
593.638	921.504
593.766	926.739
593.894	930.933
594.022	922.798
594.150	926.824
594.278	944.378
594.406	932.908
594.535	945.042
594.663	948.849
594.791	946.874
594.919	937.924
595.047	955.824
595.175	952.059
595.303	955.546
595.431	953.328
595.560	962.840
595.688	961.361
595.816	957.538
595.944	968.084
596.072	976.899
596.200	970.403
596.328	974.050
596.456	968.269
596.585	978.983
596.713	984.000
596.841	978.160
596.969	978.908
597.097	987.647
597.225	997.437
597.353	999.462
597.481	997.924
597.610	996.857
597.738	1003.311
597.866	998.050
597.994	1005.647
598.122	1021.765
598.250	1010.647
598.378	1013.168
598.506	1017.126
598.635	1018.160
598.763	1020.882
598.891	1017.697
599.019	1023.765
599.147	1018.445
599.275	1030.790
599.403	1031.588
599.531	1033.252
599.660	1031.487
599.788	1042.731
599.916	1035.487
600.044	1045.395
600.172	1039.034
600.300	1045.487
600.428	1043.487
600.556	1055.008
600.685	1057.395
600.813	1063.294
600.941	1069.975
601.069	1065.899
601.197	1074.975
601.325	1070.798
601.453	1077.134
601.581	1082.597
601.710	1079.588
601.838	1090.563
601.966	1085.454
602.094	1100.193
602.222	1089.311
602.350	1091.924
602.478	1096.210
602.606	1105.605
602.735	1111.160
602.863	1128.849
602.991	1121.639
603.119	1126.454
603.247	1132.143
603.375	1131.034
603.503	1123.462
603.631	1146.261
603.760	1145.782
603.888	1147.773
604.016	1154.050
604.144	1141.555
604.272	1151.765
604.400	1157.176
604.528	1157.571
604.656	1171.992
604.785	1178.706
604.913	1175.160
605.041	1182.681
605.169	1183.084
605.297	1175.277
605.425	1195.050
605.553	1197.462
605.681	1189.975
605.810	1195.412
605.938	1191.891
606.066	1194.445
606.194	1214.756
606.322	1201.891
606.450	1212.151
606.578	1215.538
606.706	1217.202
606.835	1219.445
606.963	1224.361
607.091	1224.849
607.219	1220.756
607.347	1222.437
607.475	1240.353
607.603	1241.605
607.731	1242.378
607.860	1235.866
607.988	1240.975
608.116	1242.563
608.244	1235.269
608.372	1243.899
608.500	1242.050
608.628	1241.664
608.756	1241.857
608.885	1259.244
609.013	1256.723
609.141	1252.454
609.269	1266.496
609.397	1259.151
609.525	1264.882
609.653	1255.916
609.781	1265.101
609.910	1254.966
610.038	1256.269
610.166	1264.857
610.294	1259.983
610.422	1268.924
610.550	1267.639
610.678	1268.042
610.806	1282.672
610.935	1280.336
611.063	1272.328
611.191	1270.832
611.319	1275.462
611.447	1273.496
611.575	1280.462
611.703	1268.437
611.831	1278.824
611.960	1291.647
612.088	1275.731
612.216	1287.958
612.344	1297.504
612.472	1283.958
612.600	1290.218
612.728	1278.832
612.856	1289.496
612.985	1281.672
613.113	1298.345
613.241	1296.924
613.369	1295.479
613.497	1308.218
613.625	1300.487
613.753	1300.210
613.881	1299.840
614.010	1305.941
614.138	1303.345
614.266	1307.227
614.394	1301.361
614.522	1309.487
614.650	1336.487
614.778	1318.076
614.906	1340.882
615.035	1326.832
615.163	1315.555
615.291	1333.471
615.419	1339.000
615.547	1332.555
615.675	1342.235
615.803	1337.471
615.931	1356.891
616.060	1346.059
616.188	1358.647
616.316	1348.563
616.444	1354.387
616.572	1355.697
616.700	1350.252
616.828	1371.319
616.956	1390.706
617.085	1380.059
617.213	1379.437
617.341	1376.891
617.469	1382.689
617.597	1384.807
617.725	1392.210
617.853	1383.664
617.981	1403.017
618.110	1409.664
618.238	1404.378
618.366	1416.311
618.494	1419.118
618.622	1418.193
618.750	1419.353
618.878	1420.479
619.006	1428.874
619.135	1439.303
619.263	1445.613
619.391	1442.563
619.519	1440.353
619.647	1454.042
619.775	1450.277
619.903	1468.647
620.031	1464.143
620.160	1466.437
620.288	1469.370
620.416	1481.462
620.544	1488.328
620.672	1495.681
620.800	1487.664
620.928	1498.185
621.056	1493.420
621.185	1494.672
621.313	1503.622
621.441	1523.151
621.569	1534.765
621.697	1518.555
621.825	1544.151
621.953	1531.807
622.081	1542.437
622.210	1537.269
622.338	1552.504
622.466	1536.807
622.594	1558.496
622.722	1556.454
622.850	1565.328
622.978	1567.134
623.106	1559.008
623.235	1574.193
623.363	1570.790
623.491	1576.345
623.619	1573.782
623.747	1591.723
623.875	1591.370
624.003	1578.294
624.131	1590.252
624.260	1576.092
624.388	1606.412
624.516	1604.563
624.644	1600.689
624.772	1605.042
624.900	1617.420
625.028	1610.496
625.156	1633.563
625.285	1611.882
625.413	1627.605
625.541	1623.739
625.669	1612.378
625.797	1622.034
625.925	1631.689
626.053	1618.941
626.181	1645.580
626.310	1637.513
626.438	1633.017
626.566	1629.462
626.694	1637.916
626.822	1647.697
626.950	1645.353
627.078	1656.269
627.206	1651.714
627.335	1665.958
627.463	1664.487
627.591	1669.983
627.719	1654.395
627.847	1668.857
627.975	1669.706
628.103	1669.723
628.231	1661.580
628.360	1654.664
628.488	1679.849
628.616	1681.849
628.744	1668.647
628.872	1661.555
629.000	1675.975
629.128	1678.134
629.256	1702.546
629.385	1691.479
629.513	1670.555
629.641	1689.613
629.769	1683.672
629.897	1691.790
630.025	1686.000
630.153	1705.387
630.281	1695.353
630.410	1704.924
630.538	1705.479
630.666	1708.773
630.794	1696.714
630.922	1694.992
631.050	1698.252
631.178	1708.050
631.306	1707.874
631.435	1715.143
631.563	1717.908
631.691	1705.378
631.819	1712.622
631.947	1738.168
632.075	1725.613
632.203	1732.765
632.331	1728.395
632.460	1722.504
632.588	1725.529
632.716	1734.689
632.844	1727.983
632.972	1732.773
633.100	1748.109
633.228	1741.546
633.356	1737.420
633.485	1737.378
633.613	1744.437
633.741	1748.109
633.869	1747.521
633.997	1737.672
634.125	1738.613
634.253	1726.303
634.381	1738.697
634.510	1759.160
634.638	1732.832
634.766	1744.832
634.894	1736.748
635.022	1728.899
635.150	1746.403
635.278	1767.706
635.406	1746.008
635.535	1741.143
635.663	1750.176
635.791	1736.571
635.919	1761.529
636.047	1745.941
636.175	1738.370
636.303	1749.672
636.431	1764.639
636.560	1758.319
636.688	1760.849
636.816	1755.891
636.944	1749.235
637.072	1769.798
637.200	1746.739
637.328	1754.403
637.456	1755.193
637.585	1751.210
637.713	1771.176
637.841	1762.924
637.969	1759.555
638.097	1753.395
638.225	1764.504
638.353	1782.244
638.481	1774.353
638.610	1781.303
638.738	1771.773
638.866	1769.429
638.994	1775.218
639.122	1775.748
639.250	1777.429
639.378	1788.134
639.506	1773.412
639.635	1787.689
639.763	1771.361
639.891	1798.126
640.019	1784.824
640.147	1794.798
640.275	1787.000
640.403	1776.950
640.531	1788.420
640.660	1794.958
640.788	1804.160
640.916	1803.345
641.044	1817.924
641.172	1806.622
641.300	1814.630
641.428	1819.697
641.556	1826.286
641.685	1816.773
641.813	1797.084
641.941	1811.370
642.069	1817.521
642.197	1825.992
642.325	1816.017
642.453	1841.723
642.581	1833.429
642.710	1825.933
642.838	1828.361
642.966	1829.916
643.094	1836.580
643.222	1819.588
643.350	1832.328
643.478	1840.445
643.606	1851.168
643.735	1840.824
643.863	1825.882
643.991	1857.773
644.119	1847.790
644.247	1845.807
644.375	1855.664
644.503	1856.176
644.631	1863.605
644.760	1871.067
644.888	1864.429
645.016	1856.933
645.144	1867.160
645.272	1850.286
645.400	1864.588
645.528	1864.605
645.656	1855.025
645.785	1859.218
645.913	1872.992
646.041	1884.017
646.169	1849.202
646.297	1860.319
646.425	1873.378
646.553	1860.824
646.681	1856.983
646.810	1851.143
646.938	1869.025
647.066	1863.193
647.194	1865.874
647.322	1850.076
647.450	1846.134
647.578	1870.437
647.706	1845.185
647.835	1849.689
647.963	1852.235
648.091	1868.160
648.219	1848.933
648.347	1857.950
648.475	1851.034
648.603	1856.395
648.731	1858.782
648.860	1834.941
648.988	1847.866
649.116	1845.538
649.244	1829.672
649.372	1825.824
649.500	1828.765
649.628	1830.168
649.756	1832.118
649.885	1818.546
650.013	1814.672
650.141	1808.176
650.269	1800.866
650.397	1820.017
650.525	1803.269
650.653	1814.849
650.781	1805.328
650.910	1795.445
651.038	1776.118
651.166	1795.672
651.294	1770.597
651.422	1775.319
651.550	1759.017
651.678	1770.630
651.806	1759.824
651.935	1773.370
652.063	1753.563
652.191	1756.521
652.319	1760.126
652.447	1745.345
652.575	1744.235
652.703	1739.218
652.831	1730.294
652.960	1727.126
653.088	1730.882
653.216	1720.571
653.344	1721.286
653.472	1726.664
653.600	1718.303
653.728	1724.487
653.856	1712.420
653.985	1723.244
654.113	1712.126
654.241	1710.563
654.369	1694.403
654.497	1717.714
654.625	1701.824
654.753	1696.227
654.881	1702.294
655.010	1703.252
655.138	1694.126
655.266	1684.597
655.394	1671.361
655.522	1683.277
655.650	1666.908
655.778	1678.311
655.906	1681.555
656.035	1685.387
656.163	1664.034
656.291	1667.454
656.419	1674.160
656.547	1662.378
656.675	1652.395
656.803	1656.067
656.931	1653.345
657.060	1655.311
657.188	1658.950
657.316	1653.798
657.444	1656.773
657.572	1653.059
657.700	1645.218
657.828	1654.983
657.956	1653.857
658.085	1656.521
658.213	1638.546
658.341	1640.597
658.469	1643.042
658.597	1645.739
658.725	1644.958
658.853	1624.588
658.981	1625.487
659.110	1631.311
659.238	1629.966
659.366	1628.807
659.494	1619.798
659.622	1615.303
659.750	1624.235
659.878	1616.210
660.006	1623.345
660.135	1614.672
660.263	1609.034
660.391	1598.067
660.519	1609.555
660.647	1596.050
660.775	1603.151
660.903	1597.832
661.031	1589.681
661.160	1588.765
661.288	1596.269
