70-120-90_at_679.99nm_cut_at_1283.50Y_01.dat
24.01.2024
11:34:03
cut middle at Y: 1283.50
top cursor: 1343 down cursor: 1224 mean of: 119 lines , 2560 datapoints
wavelength(nm)	intensity[arb. units]
515.994	460.420
516.122	438.521
516.250	429.462
516.378	425.807
516.506	424.025
516.635	429.916
516.763	431.067
516.891	432.521
517.019	434.042
517.147	430.504
517.275	427.479
517.403	434.992
517.531	428.571
517.660	430.723
517.788	432.807
517.916	431.706
518.044	432.521
518.172	433.487
518.300	431.252
518.428	433.328
518.556	433.891
518.685	431.975
518.813	434.958
518.941	439.790
519.069	436.092
519.197	435.420
519.325	433.681
519.453	439.286
519.581	442.748
519.710	438.681
519.838	445.849
519.966	440.034
520.094	442.807
520.222	443.353
520.350	445.412
520.478	448.067
520.606	450.210
520.735	450.370
520.863	453.252
520.991	455.908
521.119	450.370
521.247	451.538
521.375	453.824
521.503	458.924
521.631	457.261
521.760	455.739
521.888	460.538
522.016	463.891
522.144	464.571
522.272	462.277
522.400	463.706
522.528	468.210
522.656	460.513
522.785	467.445
522.913	468.454
523.041	460.504
523.169	467.261
523.297	470.269
523.425	468.160
523.553	467.513
523.681	467.336
523.810	473.504
523.938	478.706
524.066	473.193
524.194	471.840
524.322	472.008
524.450	472.109
524.578	468.328
524.706	472.286
524.835	467.387
524.963	471.672
525.091	476.345
525.219	473.639
525.347	472.966
525.475	477.697
525.603	475.529
525.731	471.714
525.860	476.193
525.988	474.277
526.116	468.983
526.244	474.731
526.372	472.218
526.500	474.924
526.628	476.580
526.756	474.235
526.885	476.966
527.013	480.874
527.141	478.496
527.269	477.412
527.397	477.622
527.525	476.840
527.653	477.034
527.781	478.437
527.910	486.655
528.038	483.622
528.166	483.815
528.294	480.168
528.422	480.471
528.550	490.815
528.678	480.487
528.806	484.025
528.935	486.899
529.063	490.790
529.191	491.277
529.319	483.580
529.447	496.613
529.575	497.395
529.703	491.286
529.831	497.966
529.960	493.580
530.088	498.681
530.216	493.092
530.344	497.269
530.472	501.866
530.600	496.471
530.728	495.975
530.856	505.513
530.985	500.580
531.113	501.034
531.241	501.924
531.369	507.109
531.497	503.588
531.625	511.546
531.753	500.756
531.881	506.336
532.010	509.555
532.138	508.101
532.266	502.370
532.394	507.815
532.522	502.739
532.650	509.084
532.778	512.840
532.906	504.899
533.035	507.269
533.163	505.118
533.291	501.109
533.419	503.538
533.547	508.269
533.675	503.328
533.803	499.378
533.931	505.672
534.060	501.672
534.188	504.336
534.316	506.891
534.444	508.050
534.572	508.345
534.700	508.227
534.828	503.370
534.956	510.176
535.085	503.790
535.213	510.311
535.341	504.655
535.469	514.294
535.597	512.538
535.725	517.462
535.853	516.992
535.981	515.000
536.110	517.933
536.238	520.924
536.366	523.966
536.494	517.983
536.622	525.546
536.750	519.487
536.878	523.773
537.006	526.017
537.135	528.832
537.263	527.286
537.391	535.412
537.519	529.303
537.647	527.639
537.775	533.378
537.903	535.286
538.031	538.202
538.160	533.950
538.288	539.630
538.416	536.681
538.544	536.462
538.672	541.008
538.800	538.916
538.928	543.672
539.056	539.521
539.185	546.151
539.313	541.471
539.441	542.202
539.569	550.319
539.697	545.689
539.825	545.840
539.953	545.924
540.081	542.109
540.210	544.807
540.338	552.832
540.466	549.975
540.594	548.714
540.722	541.613
540.850	544.748
540.978	550.151
541.106	549.765
541.235	555.050
541.363	549.639
541.491	550.361
541.619	544.874
541.747	551.429
541.875	550.109
542.003	543.210
542.131	549.521
542.260	551.672
542.388	554.445
542.516	557.630
542.644	550.370
542.772	550.134
542.900	552.168
543.028	552.445
543.156	554.361
543.285	551.538
543.413	553.143
543.541	559.311
543.669	557.412
543.797	557.521
543.925	555.151
544.053	563.471
544.181	558.513
544.310	560.042
544.438	559.445
544.566	562.597
544.694	563.647
544.822	556.176
544.950	564.487
545.078	566.168
545.206	567.731
545.335	563.034
545.463	571.496
545.591	567.950
545.719	569.924
545.847	565.479
545.975	572.261
546.103	564.403
546.231	576.798
546.360	566.773
546.488	570.479
546.616	572.849
546.744	576.496
546.872	572.000
547.000	579.756
547.128	571.261
547.256	575.630
547.385	569.832
547.513	570.403
547.641	582.756
547.769	578.513
547.897	578.773
548.025	586.840
548.153	581.462
548.281	579.832
548.410	577.479
548.538	584.529
548.666	584.739
548.794	577.555
548.922	581.008
549.050	589.824
549.178	582.933
549.306	590.185
549.435	590.235
549.563	586.857
549.691	580.118
549.819	585.933
549.947	590.185
550.075	584.084
550.203	584.664
550.331	587.319
550.460	589.076
550.588	589.697
550.716	596.412
550.844	587.555
550.972	585.202
551.100	590.025
551.228	592.244
551.356	586.790
551.485	592.017
551.613	588.387
551.741	578.034
551.869	577.454
551.997	582.882
552.125	585.210
552.253	579.899
552.381	578.101
552.510	581.429
552.638	580.008
552.766	581.807
552.894	577.185
553.022	582.479
553.150	569.227
553.278	572.630
553.406	581.933
553.535	573.328
553.663	577.336
553.791	575.706
553.919	578.286
554.047	578.218
554.175	583.244
554.303	580.790
554.431	577.706
554.560	577.639
554.688	581.361
554.816	578.244
554.944	579.950
555.072	582.790
555.200	590.059
555.328	582.202
555.456	585.017
555.585	586.445
555.713	586.353
555.841	590.261
555.969	586.202
556.097	589.042
556.225	592.857
556.353	603.269
556.481	589.067
556.610	599.109
556.738	596.471
556.866	595.924
556.994	597.277
557.122	592.521
557.250	603.210
557.378	599.353
557.506	601.092
557.635	598.429
557.763	600.050
557.891	611.227
558.019	604.042
558.147	605.664
558.275	607.134
558.403	619.202
558.531	610.429
558.660	611.571
558.788	610.345
558.916	613.420
559.044	602.202
559.172	615.622
559.300	617.924
559.428	618.857
559.556	625.361
559.685	617.361
559.813	615.908
559.941	622.672
560.069	625.714
560.197	621.336
560.325	626.882
560.453	622.008
560.581	629.218
560.710	616.924
560.838	618.857
560.966	621.882
561.094	628.689
561.222	624.445
561.350	625.454
561.478	620.017
561.606	625.739
561.735	617.655
561.863	624.504
561.991	625.277
562.119	619.555
562.247	623.664
562.375	630.185
562.503	619.756
562.631	620.151
562.760	625.420
562.888	624.361
563.016	619.874
563.144	623.437
563.272	627.773
563.400	618.571
563.528	620.059
563.656	623.992
563.785	624.950
563.913	618.025
564.041	625.739
564.169	622.790
564.297	624.529
564.425	620.134
564.553	629.235
564.681	628.126
564.810	626.756
564.938	622.849
565.066	626.109
565.194	627.303
565.322	634.513
565.450	632.168
565.578	632.008
565.706	631.134
565.835	629.471
565.963	631.513
566.091	636.143
566.219	635.353
566.347	631.017
566.475	638.084
566.603	641.000
566.731	641.891
566.860	642.462
566.988	643.008
567.116	649.286
567.244	647.235
567.372	646.563
567.500	652.874
567.628	649.824
567.756	657.286
567.885	659.824
568.013	655.067
568.141	656.496
568.269	656.244
568.397	657.941
568.525	657.084
568.653	665.361
568.781	666.319
568.910	666.042
569.038	666.336
569.166	665.571
569.294	671.866
569.422	673.639
569.550	670.235
569.678	676.882
569.806	676.286
569.935	684.437
570.063	674.857
570.191	681.429
570.319	684.639
570.447	691.076
570.575	682.412
570.703	690.303
570.831	694.336
570.960	686.941
571.088	699.345
571.216	694.471
571.344	699.504
571.472	693.294
571.600	708.286
571.728	695.513
571.856	700.092
571.985	704.857
572.113	706.630
572.241	703.378
572.369	712.034
572.497	704.672
572.625	711.000
572.753	714.445
572.881	718.882
573.010	709.924
573.138	722.765
573.266	717.639
573.394	718.958
573.522	714.580
573.650	718.966
573.778	724.345
573.906	726.471
574.035	719.412
574.163	725.059
574.291	723.294
574.419	723.580
574.547	735.454
574.675	732.588
574.803	731.580
574.931	728.689
575.060	737.908
575.188	726.185
575.316	728.521
575.444	737.067
575.572	731.118
575.700	732.807
575.828	732.311
575.956	744.109
576.085	732.924
576.213	735.210
576.341	727.950
576.469	734.639
576.597	739.924
576.725	731.084
576.853	733.798
576.981	730.723
577.110	727.966
577.238	739.571
577.366	738.966
577.494	732.429
577.622	735.714
577.750	727.840
577.878	737.941
578.006	740.084
578.135	733.462
578.263	741.992
578.391	740.571
578.519	741.647
578.647	741.504
578.775	738.782
578.903	739.193
579.031	748.773
579.160	739.471
579.288	748.353
579.416	739.412
579.544	747.311
579.672	747.126
579.800	752.109
579.928	747.487
580.056	742.571
580.185	750.546
580.313	749.050
580.441	755.555
580.569	752.966
580.697	746.261
580.825	756.908
580.953	761.303
581.081	753.639
581.210	763.664
581.338	764.471
581.466	766.723
581.594	761.479
581.722	761.933
581.850	767.992
581.978	765.655
582.106	774.714
582.235	772.697
582.363	767.403
582.491	777.227
582.619	773.218
582.747	784.605
582.875	784.487
583.003	793.370
583.131	784.731
583.260	790.202
583.388	797.244
583.516	793.992
583.644	795.118
583.772	798.748
583.900	808.613
584.028	805.109
584.156	805.118
584.285	811.992
584.413	808.714
584.541	814.017
584.669	820.202
584.797	821.966
584.925	819.782
585.053	823.487
585.181	828.076
585.310	828.899
585.438	833.992
585.566	833.681
585.694	841.689
585.822	838.143
585.950	843.538
586.078	851.731
586.206	844.597
586.335	853.050
586.463	855.454
586.591	860.319
586.719	849.496
586.847	864.067
586.975	856.210
587.103	862.353
587.231	861.429
587.360	869.008
587.488	871.277
587.616	875.076
587.744	879.345
587.872	868.857
588.000	877.487
588.128	883.034
588.256	881.202
588.385	881.605
588.513	885.403
588.641	884.647
588.769	893.395
588.897	887.471
589.025	883.958
589.153	888.941
589.281	885.672
589.410	893.294
589.538	893.345
589.666	902.185
589.794	898.597
589.922	899.706
590.050	911.697
590.178	904.076
590.306	897.529
590.435	906.933
590.563	901.143
590.691	907.403
590.819	910.261
590.947	920.345
591.075	910.706
591.203	911.765
591.331	918.849
591.460	921.328
591.588	910.252
591.716	915.992
591.844	913.681
591.972	930.966
592.100	926.773
592.228	927.050
592.356	936.277
592.485	923.529
592.613	930.613
592.741	942.143
592.869	936.227
592.997	947.504
593.125	943.109
593.253	948.008
593.381	950.151
593.510	951.437
593.638	952.992
593.766	952.387
593.894	964.269
594.022	943.303
594.150	958.891
594.278	975.261
594.406	962.134
594.535	963.588
594.663	966.336
594.791	964.403
594.919	965.261
595.047	981.168
595.175	983.361
595.303	974.840
595.431	973.899
595.560	990.244
595.688	983.118
595.816	977.639
595.944	998.546
596.072	995.824
596.200	1004.874
596.328	998.193
596.456	995.815
596.585	1011.336
596.713	1013.286
596.841	1009.353
596.969	1004.798
597.097	1015.134
597.225	1015.882
597.353	1028.622
597.481	1029.403
597.610	1034.521
597.738	1034.311
597.866	1029.126
597.994	1036.807
598.122	1054.235
598.250	1048.538
598.378	1046.630
598.506	1050.748
598.635	1047.277
598.763	1055.218
598.891	1052.487
599.019	1060.160
599.147	1055.084
599.275	1061.319
599.403	1062.563
599.531	1073.487
599.660	1070.294
599.788	1078.042
599.916	1078.840
600.044	1079.454
600.172	1083.303
600.300	1082.235
600.428	1081.454
600.556	1094.445
600.685	1102.739
600.813	1098.042
600.941	1105.773
601.069	1104.824
601.197	1111.765
601.325	1109.210
601.453	1116.353
601.581	1120.815
601.710	1123.328
601.838	1127.294
601.966	1133.462
602.094	1132.109
602.222	1137.168
602.350	1138.832
602.478	1145.571
602.606	1147.857
602.735	1147.597
602.863	1164.546
602.991	1157.807
603.119	1172.101
603.247	1176.866
603.375	1174.706
603.503	1176.580
603.631	1188.076
603.760	1188.899
603.888	1194.328
604.016	1204.462
604.144	1201.445
604.272	1197.487
604.400	1205.504
604.528	1204.958
604.656	1209.218
604.785	1216.588
604.913	1221.555
605.041	1231.689
605.169	1229.975
605.297	1234.613
605.425	1230.227
605.553	1254.563
605.681	1247.681
605.810	1248.739
605.938	1259.210
606.066	1249.059
606.194	1255.563
606.322	1262.975
606.450	1266.118
606.578	1269.462
606.706	1273.731
606.835	1274.689
606.963	1276.420
607.091	1278.471
607.219	1282.168
607.347	1277.538
607.475	1287.277
607.603	1299.462
607.731	1284.933
607.860	1288.714
607.988	1293.992
608.116	1295.513
608.244	1289.185
608.372	1293.496
608.500	1301.059
608.628	1304.941
608.756	1303.235
608.885	1307.084
609.013	1314.454
609.141	1307.227
609.269	1314.756
609.397	1318.168
609.525	1327.454
609.653	1320.185
609.781	1314.882
609.910	1318.588
610.038	1318.580
610.166	1330.025
610.294	1310.798
610.422	1341.866
610.550	1324.235
610.678	1320.866
610.806	1333.983
610.935	1331.185
611.063	1328.866
611.191	1336.227
611.319	1338.689
611.447	1337.832
611.575	1342.193
611.703	1332.832
611.831	1341.252
611.960	1339.588
612.088	1344.739
612.216	1352.689
612.344	1354.496
612.472	1333.613
612.600	1353.008
612.728	1346.042
612.856	1363.067
612.985	1354.118
613.113	1351.412
613.241	1360.151
613.369	1369.714
613.497	1364.992
613.625	1365.151
613.753	1364.874
613.881	1367.034
614.010	1369.916
614.138	1360.933
614.266	1360.866
614.394	1370.403
614.522	1380.504
614.650	1395.303
614.778	1374.361
614.906	1409.563
615.035	1378.748
615.163	1383.798
615.291	1395.891
615.419	1408.471
615.547	1398.672
615.675	1417.176
615.803	1406.555
615.931	1417.235
616.060	1418.008
616.188	1419.378
616.316	1418.706
616.444	1414.798
616.572	1431.328
616.700	1422.311
616.828	1442.235
616.956	1446.765
617.085	1461.218
617.213	1448.882
617.341	1440.588
617.469	1446.261
617.597	1464.244
617.725	1456.756
617.853	1462.647
617.981	1469.387
618.110	1470.933
618.238	1471.143
618.366	1491.613
618.494	1496.403
618.622	1493.319
618.750	1495.605
618.878	1498.496
619.006	1512.008
619.135	1515.277
619.263	1517.151
619.391	1511.328
619.519	1528.176
619.647	1530.840
619.775	1528.303
619.903	1537.261
620.031	1539.857
620.160	1545.420
620.288	1545.109
620.416	1565.462
620.544	1553.647
620.672	1563.277
620.800	1569.050
620.928	1580.244
621.056	1583.319
621.185	1583.630
621.313	1588.168
621.441	1609.160
621.569	1613.378
621.697	1608.303
621.825	1619.050
621.953	1617.034
622.081	1631.118
622.210	1618.782
622.338	1631.269
622.466	1621.773
622.594	1645.933
622.722	1642.731
622.850	1648.420
622.978	1656.017
623.106	1659.076
623.235	1663.370
623.363	1668.025
623.491	1669.336
623.619	1668.479
623.747	1684.050
623.875	1678.504
624.003	1666.462
624.131	1681.067
624.260	1670.748
624.388	1698.983
624.516	1715.782
624.644	1684.958
624.772	1691.210
624.900	1706.076
625.028	1694.151
625.156	1732.807
625.285	1710.798
625.413	1713.975
625.541	1723.286
625.669	1722.126
625.797	1722.739
625.925	1730.336
626.053	1714.445
626.181	1739.664
626.310	1736.462
626.438	1732.387
626.566	1737.866
626.694	1740.403
626.822	1732.891
626.950	1761.924
627.078	1750.193
627.206	1743.555
627.335	1766.420
627.463	1758.025
627.591	1761.218
627.719	1762.462
627.847	1771.521
627.975	1775.311
628.103	1757.622
628.231	1779.420
628.360	1761.697
628.488	1773.824
628.616	1778.185
628.744	1764.958
628.872	1766.294
629.000	1780.664
629.128	1786.445
629.256	1799.395
629.385	1785.798
629.513	1762.647
629.641	1796.345
629.769	1789.067
629.897	1794.286
630.025	1797.555
630.153	1810.378
630.281	1799.605
630.410	1791.647
630.538	1822.882
630.666	1807.420
630.794	1810.176
630.922	1800.168
631.050	1806.580
631.178	1816.731
631.306	1807.176
631.435	1814.025
631.563	1821.966
631.691	1799.773
631.819	1823.849
631.947	1828.681
632.075	1826.748
632.203	1835.269
632.331	1829.597
632.460	1817.941
632.588	1833.471
632.716	1826.529
632.844	1817.000
632.972	1830.538
633.100	1838.193
633.228	1844.445
633.356	1825.739
633.485	1827.975
633.613	1837.462
633.741	1831.866
633.869	1852.252
633.997	1842.277
634.125	1843.487
634.253	1838.689
634.381	1829.395
634.510	1857.857
634.638	1833.143
634.766	1836.756
634.894	1841.311
635.022	1845.731
635.150	1853.647
635.278	1859.244
635.406	1840.782
635.535	1852.639
635.663	1845.563
635.791	1840.437
635.919	1859.681
636.047	1851.790
636.175	1835.966
636.303	1853.160
636.431	1864.176
636.560	1850.252
636.688	1865.269
636.816	1865.092
636.944	1839.370
637.072	1863.008
637.200	1844.689
637.328	1843.874
637.456	1862.588
637.585	1856.118
637.713	1871.311
637.841	1857.697
637.969	1856.202
638.097	1851.286
638.225	1864.689
638.353	1886.555
638.481	1867.849
638.610	1876.429
638.738	1872.782
638.866	1861.605
638.994	1871.420
639.122	1884.798
639.250	1876.765
639.378	1894.109
639.506	1863.454
639.635	1875.345
639.763	1863.941
639.891	1884.387
640.019	1894.076
640.147	1882.815
640.275	1884.807
640.403	1882.739
640.531	1883.958
640.660	1883.798
640.788	1897.815
640.916	1887.697
641.044	1919.311
641.172	1900.303
641.300	1904.966
641.428	1899.630
641.556	1910.899
641.685	1904.605
641.813	1891.353
641.941	1900.798
642.069	1923.748
642.197	1913.697
642.325	1907.874
642.453	1923.462
642.581	1930.336
642.710	1909.538
642.838	1928.034
642.966	1921.655
643.094	1932.101
643.222	1926.185
643.350	1934.109
643.478	1932.151
643.606	1939.975
643.735	1938.143
643.863	1922.353
643.991	1955.521
644.119	1934.445
644.247	1938.765
644.375	1934.815
644.503	1952.941
644.631	1960.185
644.760	1950.109
644.888	1951.336
645.016	1953.866
645.144	1972.899
645.272	1952.891
645.400	1960.739
645.528	1958.975
645.656	1937.042
645.785	1953.815
645.913	1965.697
646.041	1964.975
646.169	1938.824
646.297	1941.378
646.425	1955.378
646.553	1946.597
646.681	1940.328
646.810	1942.303
646.938	1955.437
647.066	1944.101
647.194	1962.739
647.322	1946.084
647.450	1929.714
647.578	1949.588
647.706	1943.513
647.835	1942.613
647.963	1936.613
648.091	1939.008
648.219	1928.571
648.347	1938.681
648.475	1929.412
648.603	1945.513
648.731	1940.496
648.860	1920.487
648.988	1925.756
649.116	1929.034
649.244	1905.613
649.372	1908.866
649.500	1906.008
649.628	1916.378
649.756	1908.958
649.885	1894.092
650.013	1880.958
650.141	1889.723
650.269	1880.235
650.397	1887.025
650.525	1878.647
650.653	1892.782
650.781	1873.857
650.910	1861.681
651.038	1862.378
651.166	1856.210
651.294	1852.538
651.422	1849.874
651.550	1834.538
651.678	1841.160
651.806	1839.630
651.935	1852.303
652.063	1840.588
652.191	1817.756
652.319	1835.218
652.447	1821.361
652.575	1812.471
652.703	1801.681
652.831	1806.933
652.960	1803.992
653.088	1795.950
653.216	1789.059
653.344	1781.521
653.472	1783.395
653.600	1785.765
653.728	1778.882
653.856	1775.882
653.985	1799.588
654.113	1781.807
654.241	1775.395
654.369	1762.765
654.497	1790.487
654.625	1764.193
654.753	1781.723
654.881	1767.403
655.010	1772.622
655.138	1764.479
655.266	1758.059
655.394	1735.353
655.522	1754.353
655.650	1737.118
655.778	1751.908
655.906	1742.210
656.035	1733.126
656.163	1741.227
656.291	1731.908
656.419	1745.622
656.547	1736.361
656.675	1722.134
656.803	1721.050
656.931	1730.353
657.060	1723.067
657.188	1727.958
657.316	1716.042
657.444	1716.706
657.572	1720.143
657.700	1708.529
657.828	1711.504
657.956	1714.101
658.085	1726.361
658.213	1703.067
658.341	1699.891
658.469	1700.109
658.597	1717.353
658.725	1718.025
658.853	1687.647
658.981	1686.378
659.110	1687.193
659.238	1698.143
659.366	1689.017
659.494	1681.437
659.622	1683.891
659.750	1688.756
659.878	1682.134
660.006	1685.513
660.135	1669.563
660.263	1656.008
660.391	1660.185
660.519	1670.437
660.647	1654.555
660.775	1660.899
660.903	1653.252
661.031	1641.807
661.160	1648.992
