70-70-90_at_679.99nm_cut_at_1286.00Y_01.dat
24.01.2024
11:25:42
cut middle at Y: 1286.00
top cursor: 1345 down cursor: 1227 mean of: 118 lines , 2560 datapoints
wavelength(nm)	intensity[arb. units]
515.994	462.339
516.122	443.958
516.250	439.076
516.378	427.449
516.506	433.280
516.635	433.212
516.763	435.364
516.891	438.449
517.019	438.381
517.147	436.000
517.275	440.746
517.403	440.593
517.531	435.008
517.660	433.797
517.788	441.771
517.916	439.136
518.044	436.763
518.172	438.703
518.300	437.814
518.428	437.212
518.556	442.381
518.685	439.797
518.813	440.746
518.941	445.695
519.069	439.178
519.197	444.229
519.325	443.220
519.453	440.992
519.581	448.797
519.710	441.186
519.838	451.780
519.966	452.458
520.094	451.263
520.222	446.941
520.350	452.356
520.478	448.754
520.606	456.466
520.735	451.585
520.863	456.169
520.991	460.669
521.119	457.703
521.247	457.568
521.375	457.525
521.503	463.263
521.631	465.178
521.760	466.958
521.888	461.229
522.016	464.619
522.144	467.068
522.272	467.729
522.400	469.636
522.528	471.898
522.656	469.186
522.785	468.305
522.913	474.153
523.041	469.008
523.169	469.254
523.297	474.644
523.425	475.864
523.553	472.449
523.681	474.492
523.810	477.534
523.938	476.517
524.066	473.746
524.194	476.602
524.322	476.627
524.450	473.653
524.578	474.331
524.706	478.517
524.835	470.610
524.963	477.068
525.091	473.127
525.219	476.254
525.347	471.203
525.475	477.966
525.603	477.534
525.731	475.458
525.860	475.703
525.988	470.441
526.116	473.127
526.244	477.703
526.372	478.186
526.500	472.280
526.628	478.568
526.756	475.212
526.885	478.288
527.013	477.110
527.141	477.822
527.269	476.263
527.397	478.008
527.525	478.661
527.653	476.525
527.781	476.339
527.910	483.864
528.038	482.322
528.166	483.458
528.294	486.288
528.422	481.195
528.550	487.839
528.678	485.847
528.806	489.737
528.935	494.568
529.063	485.339
529.191	493.381
529.319	489.797
529.447	493.407
529.575	494.000
529.703	495.932
529.831	497.415
529.960	492.297
530.088	500.449
530.216	498.153
530.344	494.449
530.472	495.254
530.600	498.754
530.728	497.051
530.856	504.822
530.985	501.186
531.113	499.508
531.241	502.831
531.369	507.695
531.497	501.822
531.625	504.619
531.753	496.915
531.881	508.788
532.010	507.246
532.138	503.136
532.266	498.068
532.394	502.305
532.522	502.992
532.650	502.237
532.778	505.339
532.906	506.508
533.035	511.347
533.163	499.966
533.291	500.475
533.419	498.763
533.547	504.364
533.675	509.042
533.803	498.068
533.931	497.415
534.060	507.000
534.188	503.008
534.316	502.458
534.444	506.720
534.572	505.585
534.700	509.246
534.828	501.754
534.956	507.924
535.085	509.653
535.213	510.856
535.341	507.568
535.469	506.780
535.597	508.763
535.725	509.517
535.853	512.229
535.981	515.025
536.110	513.746
536.238	513.898
536.366	517.441
536.494	517.797
536.622	525.992
536.750	515.161
536.878	523.492
537.006	523.873
537.135	524.602
537.263	519.627
537.391	523.644
537.519	527.839
537.647	531.153
537.775	527.339
537.903	526.102
538.031	529.627
538.160	526.483
538.288	532.000
538.416	535.195
538.544	533.119
538.672	534.314
538.800	531.915
538.928	537.068
539.056	538.788
539.185	533.025
539.313	532.449
539.441	537.763
539.569	536.093
539.697	537.407
539.825	536.864
539.953	535.797
540.081	533.432
540.210	540.746
540.338	538.483
540.466	541.339
540.594	535.856
540.722	539.517
540.850	541.347
540.978	537.153
541.106	536.237
541.235	542.746
541.363	541.085
541.491	539.407
541.619	535.093
541.747	538.424
541.875	539.178
542.003	537.873
542.131	540.492
542.260	542.458
542.388	536.890
542.516	542.432
542.644	539.686
542.772	538.034
542.900	538.898
543.028	542.822
543.156	542.195
543.285	540.576
543.413	542.220
543.541	541.568
543.669	548.924
543.797	546.076
543.925	547.203
544.053	549.686
544.181	543.695
544.310	546.805
544.438	547.703
544.566	548.619
544.694	550.585
544.822	551.864
544.950	550.932
545.078	548.864
545.206	551.924
545.335	555.008
545.463	548.110
545.591	554.288
545.719	552.576
545.847	550.280
545.975	557.110
546.103	556.034
546.231	559.195
546.360	553.678
546.488	550.398
546.616	560.102
546.744	554.314
546.872	560.814
547.000	560.890
547.128	559.703
547.256	559.271
547.385	552.898
547.513	553.254
547.641	557.932
547.769	563.593
547.897	561.602
548.025	565.017
548.153	563.585
548.281	558.203
548.410	563.059
548.538	567.864
548.666	568.780
548.794	569.695
548.922	560.322
549.050	565.280
549.178	565.068
549.306	566.627
549.435	575.186
549.563	563.788
549.691	558.381
549.819	572.034
549.947	569.424
550.075	571.398
550.203	568.992
550.331	568.212
550.460	564.839
550.588	567.610
550.716	569.720
550.844	565.771
550.972	566.119
551.100	566.161
551.228	566.983
551.356	564.915
551.485	563.653
551.613	559.653
551.741	556.839
551.869	560.229
551.997	555.432
552.125	555.432
552.253	556.932
552.381	557.568
552.510	554.508
552.638	551.881
552.766	559.314
552.894	548.169
553.022	550.814
553.150	557.229
553.278	550.331
553.406	550.000
553.535	547.000
553.663	552.703
553.791	556.263
553.919	552.203
554.047	560.390
554.175	551.661
554.303	553.458
554.431	552.059
554.560	553.025
554.688	552.788
554.816	552.398
554.944	556.754
555.072	550.034
555.200	555.271
555.328	553.814
555.456	562.449
555.585	560.195
555.713	553.678
555.841	563.093
555.969	550.763
556.097	559.636
556.225	561.246
556.353	567.288
556.481	560.178
556.610	569.839
556.738	565.822
556.866	565.280
556.994	565.958
557.122	563.424
557.250	574.737
557.378	569.780
557.506	568.153
557.635	565.847
557.763	566.975
557.891	570.534
558.019	574.195
558.147	572.280
558.275	573.178
558.403	575.754
558.531	572.153
558.660	571.932
558.788	576.322
558.916	573.246
559.044	572.000
559.172	574.695
559.300	582.305
559.428	576.576
559.556	583.390
559.685	583.119
559.813	585.034
559.941	583.305
560.069	581.373
560.197	578.102
560.325	583.703
560.453	587.424
560.581	579.958
560.710	582.686
560.838	584.508
560.966	583.746
561.094	585.653
561.222	582.466
561.350	583.644
561.478	578.898
561.606	581.042
561.735	582.678
561.863	575.788
561.991	581.924
562.119	577.627
562.247	581.703
562.375	580.271
562.503	581.381
562.631	580.576
562.760	576.958
562.888	576.364
563.016	579.178
563.144	582.975
563.272	579.475
563.400	570.102
563.528	579.136
563.656	577.441
563.785	578.542
563.913	578.644
564.041	570.686
564.169	579.703
564.297	575.737
564.425	579.475
564.553	577.712
564.681	581.441
564.810	576.000
564.938	579.720
565.066	576.915
565.194	577.864
565.322	578.636
565.450	578.347
565.578	583.466
565.706	578.737
565.835	589.407
565.963	586.441
566.091	577.085
566.219	581.966
566.347	579.271
566.475	583.203
566.603	587.119
566.731	590.788
566.860	588.449
566.988	582.517
567.116	591.644
567.244	593.119
567.372	595.492
567.500	589.305
567.628	589.339
567.756	590.746
567.885	598.873
568.013	604.322
568.141	600.839
568.269	591.347
568.397	601.432
568.525	601.915
568.653	606.093
568.781	607.203
568.910	614.297
569.038	609.237
569.166	603.661
569.294	604.881
569.422	610.941
569.550	611.814
569.678	617.890
569.806	618.102
569.935	613.576
570.063	612.237
570.191	623.331
570.319	614.534
570.447	612.763
570.575	620.788
570.703	623.424
570.831	623.941
570.960	623.788
571.088	625.856
571.216	624.220
571.344	627.432
571.472	626.237
571.600	633.915
571.728	626.890
571.856	636.466
571.985	635.127
572.113	634.729
572.241	632.780
572.369	638.585
572.497	637.195
572.625	641.390
572.753	636.161
572.881	638.492
573.010	634.653
573.138	645.195
573.266	642.441
573.394	641.593
573.522	643.788
573.650	638.127
573.778	640.466
573.906	637.746
574.035	642.627
574.163	640.483
574.291	646.136
574.419	645.195
574.547	642.271
574.675	645.602
574.803	641.034
574.931	642.280
575.060	650.898
575.188	640.127
575.316	646.068
575.444	642.585
575.572	642.992
575.700	642.246
575.828	644.585
575.956	648.161
576.085	647.102
576.213	653.483
576.341	638.992
576.469	648.746
576.597	641.517
576.725	637.619
576.853	639.636
576.981	642.051
577.110	647.415
577.238	646.017
577.366	641.449
577.494	635.186
577.622	643.483
577.750	640.542
577.878	642.093
578.006	646.712
578.135	645.576
578.263	644.517
578.391	650.517
578.519	639.686
578.647	639.814
578.775	640.678
578.903	637.415
579.031	645.814
579.160	641.483
579.288	647.076
579.416	642.602
579.544	638.381
579.672	648.746
579.800	644.263
579.928	647.551
580.056	640.856
580.185	646.280
580.313	642.432
580.441	644.449
580.569	642.958
580.697	643.907
580.825	645.881
580.953	649.305
581.081	647.661
581.210	650.475
581.338	651.542
581.466	656.246
581.594	658.297
581.722	655.161
581.850	646.746
581.978	653.788
582.106	654.780
582.235	654.475
582.363	656.339
582.491	660.068
582.619	650.458
582.747	658.712
582.875	664.525
583.003	663.025
583.131	663.178
583.260	667.915
583.388	668.847
583.516	677.347
583.644	677.771
583.772	675.017
583.900	681.127
584.028	682.169
584.156	674.093
584.285	681.212
584.413	678.373
584.541	687.610
584.669	688.780
584.797	687.771
584.925	691.364
585.053	692.483
585.181	691.729
585.310	692.127
585.438	689.890
585.566	694.551
585.694	700.415
585.822	710.339
585.950	704.695
586.078	707.695
586.206	705.136
586.335	706.364
586.463	707.305
586.591	716.644
586.719	713.898
586.847	712.136
586.975	716.525
587.103	721.873
587.231	711.144
587.360	718.958
587.488	724.432
587.616	718.602
587.744	729.568
587.872	712.619
588.000	723.475
588.128	725.559
588.256	724.653
588.385	729.153
588.513	729.297
588.641	726.653
588.769	731.381
588.897	731.000
589.025	730.483
589.153	730.042
589.281	723.873
589.410	728.076
589.538	729.492
589.666	732.661
589.794	729.271
589.922	734.873
590.050	735.483
590.178	727.102
590.306	734.449
590.435	728.186
590.563	728.153
590.691	738.941
590.819	729.534
590.947	743.432
591.075	728.144
591.203	731.720
591.331	744.051
591.460	743.737
591.588	730.169
591.716	742.297
591.844	739.559
591.972	748.008
592.100	742.169
592.228	739.856
592.356	745.186
592.485	742.559
592.613	741.051
592.741	750.619
592.869	746.703
592.997	749.873
593.125	753.805
593.253	756.585
593.381	752.297
593.510	751.864
593.638	756.720
593.766	750.000
593.894	752.975
594.022	752.271
594.150	758.466
594.278	766.212
594.406	761.169
594.535	763.407
594.663	769.314
594.791	766.619
594.919	766.042
595.047	777.814
595.175	767.195
595.303	767.229
595.431	766.542
595.560	771.602
595.688	777.186
595.816	764.949
595.944	785.373
596.072	782.093
596.200	775.280
596.328	779.441
596.456	780.076
596.585	780.949
596.713	789.059
596.841	777.424
596.969	787.508
597.097	792.068
597.225	789.042
597.353	796.780
597.481	794.839
597.610	799.856
597.738	791.331
597.866	792.288
597.994	800.797
598.122	809.000
598.250	804.610
598.378	803.814
598.506	801.102
598.635	802.186
598.763	808.000
598.891	804.381
599.019	808.576
599.147	803.788
599.275	807.805
599.403	811.661
599.531	808.322
599.660	808.161
599.788	821.424
599.916	814.432
600.044	818.712
600.172	819.856
600.300	825.008
600.428	820.373
600.556	822.686
600.685	828.068
600.813	831.551
600.941	830.703
601.069	830.314
601.197	837.941
601.325	832.246
601.453	837.144
601.581	837.653
601.710	838.593
601.838	848.297
601.966	843.678
602.094	844.517
602.222	841.924
602.350	840.780
602.478	848.958
602.606	859.169
602.735	853.051
602.863	863.475
602.991	862.407
603.119	860.127
603.247	866.500
603.375	863.593
603.503	866.653
603.631	869.119
603.760	872.000
603.888	874.220
604.016	877.127
604.144	870.110
604.272	879.992
604.400	884.364
604.528	877.890
604.656	881.178
604.785	886.347
604.913	897.008
605.041	890.475
605.169	894.381
605.297	892.492
605.425	896.331
605.553	897.992
605.681	893.695
605.810	898.237
605.938	902.559
606.066	899.390
606.194	901.280
606.322	896.754
606.450	910.076
606.578	913.449
606.706	911.856
606.835	911.653
606.963	915.212
607.091	910.839
607.219	915.559
607.347	913.585
607.475	922.398
607.603	917.178
607.731	915.000
607.860	914.424
607.988	914.695
608.116	911.314
608.244	919.068
608.372	912.017
608.500	921.653
608.628	916.873
608.756	915.407
608.885	922.254
609.013	928.805
609.141	922.059
609.269	920.254
609.397	920.576
609.525	921.390
609.653	919.610
609.781	922.797
609.910	917.178
610.038	917.432
610.166	915.186
610.294	919.246
610.422	927.381
610.550	921.390
610.678	921.992
610.806	919.932
610.935	921.653
611.063	920.085
611.191	914.288
611.319	933.017
611.447	922.441
611.575	918.339
611.703	921.280
611.831	923.424
611.960	921.339
612.088	923.263
612.216	922.602
612.344	930.602
612.472	916.068
612.600	926.729
612.728	921.373
612.856	928.805
612.985	923.449
613.113	920.619
613.241	930.136
613.369	923.042
613.497	931.576
613.625	926.636
613.753	930.847
613.881	923.763
614.010	929.983
614.138	930.983
614.266	920.847
614.394	930.915
614.522	924.805
614.650	936.695
614.778	930.941
614.906	943.119
615.035	933.703
615.163	927.390
615.291	939.110
615.419	938.746
615.547	932.356
615.675	943.339
615.803	928.847
615.931	949.763
616.060	938.203
616.188	945.186
616.316	943.602
616.444	946.119
616.572	946.229
616.700	942.627
616.828	954.737
616.956	950.068
617.085	954.288
617.213	956.271
617.341	946.263
617.469	954.729
617.597	967.390
617.725	956.373
617.853	955.907
617.981	966.500
618.110	965.559
618.238	953.653
618.366	973.475
618.494	974.271
618.622	973.373
618.750	978.178
618.878	973.788
619.006	983.212
619.135	983.119
619.263	978.381
619.391	978.271
619.519	981.178
619.647	991.975
619.775	985.229
619.903	998.322
620.031	989.780
620.160	998.017
620.288	992.220
620.416	996.898
620.544	1006.847
620.672	1005.025
620.800	1003.856
620.928	1007.424
621.056	1004.220
621.185	1007.347
621.313	1015.025
621.441	1010.958
621.569	1020.593
621.697	1011.695
621.825	1037.492
621.953	1017.263
622.081	1030.551
622.210	1017.822
622.338	1027.076
622.466	1029.059
622.594	1037.737
622.722	1033.839
622.850	1040.212
622.978	1038.229
623.106	1026.805
623.235	1038.712
623.363	1038.873
623.491	1042.593
623.619	1032.559
623.747	1037.492
623.875	1039.763
624.003	1034.636
624.131	1040.068
624.260	1033.585
624.388	1045.653
624.516	1051.212
624.644	1036.737
624.772	1050.390
624.900	1046.127
625.028	1033.695
625.156	1060.364
625.285	1041.881
625.413	1050.627
625.541	1043.449
625.669	1048.492
625.797	1054.593
625.925	1050.729
626.053	1049.042
626.181	1059.322
626.310	1056.127
626.438	1061.127
626.566	1051.347
626.694	1049.686
626.822	1052.314
626.950	1048.797
627.078	1057.669
627.206	1050.136
627.335	1062.424
627.463	1048.585
627.591	1057.602
627.719	1052.881
627.847	1063.619
627.975	1059.695
628.103	1057.169
628.231	1053.975
628.360	1053.822
628.488	1062.186
628.616	1064.441
628.744	1053.746
628.872	1054.856
629.000	1057.983
629.128	1056.534
629.256	1071.881
629.385	1060.203
629.513	1056.907
629.641	1074.254
629.769	1052.271
629.897	1065.415
630.025	1055.127
630.153	1066.407
630.281	1068.364
630.410	1057.415
630.538	1069.992
630.666	1061.169
630.794	1067.958
630.922	1057.847
631.050	1060.695
631.178	1057.339
631.306	1059.093
631.435	1068.941
631.563	1061.373
631.691	1049.788
631.819	1066.059
631.947	1059.814
632.075	1069.034
632.203	1069.331
632.331	1060.322
632.460	1060.627
632.588	1064.856
632.716	1058.288
632.844	1068.102
632.972	1067.000
633.100	1071.008
633.228	1063.178
633.356	1067.992
633.485	1071.500
633.613	1067.178
633.741	1063.339
633.869	1061.441
633.997	1068.568
634.125	1063.517
634.253	1059.102
634.381	1055.373
634.510	1076.839
634.638	1052.483
634.766	1064.212
634.894	1069.398
635.022	1057.161
635.150	1054.890
635.278	1066.712
635.406	1053.356
635.535	1054.169
635.663	1062.924
635.791	1060.339
635.919	1060.415
636.047	1057.220
636.175	1047.076
636.303	1056.212
636.431	1054.966
636.560	1064.534
636.688	1068.975
636.816	1056.542
636.944	1055.737
637.072	1059.932
637.200	1050.788
637.328	1046.017
637.456	1057.873
637.585	1045.737
637.713	1064.720
637.841	1050.822
637.969	1060.763
638.097	1052.975
638.225	1055.398
638.353	1055.627
638.481	1057.195
638.610	1065.093
638.738	1054.847
638.866	1048.754
638.994	1054.568
639.122	1058.483
639.250	1055.780
639.378	1062.237
639.506	1050.525
639.635	1055.441
639.763	1041.288
639.891	1062.076
640.019	1057.017
640.147	1060.186
640.275	1052.619
640.403	1062.008
640.531	1047.856
640.660	1063.025
640.788	1066.873
640.916	1060.263
641.044	1068.322
641.172	1059.314
641.300	1069.992
641.428	1069.678
641.556	1073.602
641.685	1055.958
641.813	1067.661
641.941	1062.619
642.069	1066.975
642.197	1067.992
642.325	1059.602
642.453	1065.466
642.581	1075.373
642.710	1060.814
642.838	1068.712
642.966	1071.136
643.094	1067.695
643.222	1073.000
643.350	1062.229
643.478	1071.186
643.606	1079.483
643.735	1071.644
643.863	1062.898
643.991	1077.771
644.119	1076.153
644.247	1078.703
644.375	1077.856
644.503	1083.025
644.631	1069.212
644.760	1072.390
644.888	1081.051
645.016	1080.466
645.144	1092.754
645.272	1079.576
645.400	1070.254
645.528	1087.220
645.656	1072.771
645.785	1075.263
645.913	1074.220
646.041	1077.127
646.169	1065.822
646.297	1071.102
646.425	1071.212
646.553	1066.127
646.681	1068.941
646.810	1074.144
646.938	1081.661
647.066	1058.983
647.194	1070.644
647.322	1065.831
647.450	1061.932
647.578	1069.415
647.706	1067.941
647.835	1070.847
647.963	1057.280
648.091	1073.678
648.219	1054.203
648.347	1059.220
648.475	1060.339
648.603	1060.686
648.731	1055.712
648.860	1056.661
648.988	1059.966
649.116	1060.619
649.244	1051.500
649.372	1041.542
649.500	1039.924
649.628	1048.144
649.756	1042.958
649.885	1027.525
650.013	1039.958
650.141	1035.492
650.269	1032.525
650.397	1031.288
650.525	1028.025
650.653	1029.051
650.781	1025.932
650.910	1025.398
651.038	1023.720
651.166	1025.000
651.294	1014.805
651.422	1010.525
651.550	1003.288
651.678	997.788
651.806	1006.017
651.935	1006.364
652.063	1000.780
652.191	998.542
652.319	1007.585
652.447	1001.958
652.575	993.051
652.703	984.559
652.831	980.508
652.960	988.203
653.088	988.119
653.216	982.144
653.344	984.373
653.472	986.110
653.600	979.890
653.728	974.186
653.856	965.229
653.985	978.941
654.113	976.305
654.241	969.441
654.369	972.169
654.497	976.924
654.625	965.661
654.753	966.144
654.881	972.669
655.010	973.644
655.138	960.763
655.266	964.864
655.394	956.458
655.522	959.178
655.650	948.178
655.778	950.347
655.906	954.568
656.035	958.754
656.163	962.008
656.291	959.941
656.419	957.932
656.547	970.814
656.675	944.932
656.803	952.712
656.931	953.076
657.060	956.534
657.188	949.712
657.316	949.237
657.444	949.797
657.572	951.119
657.700	943.864
657.828	943.669
657.956	944.127
658.085	952.237
658.213	934.610
658.341	945.449
658.469	942.669
658.597	937.356
658.725	945.737
658.853	935.297
658.981	926.076
659.110	936.110
659.238	930.678
659.366	935.966
659.494	927.534
659.622	927.102
659.750	935.864
659.878	933.551
660.006	929.644
660.135	923.754
660.263	923.814
660.391	924.153
660.519	926.483
660.647	922.941
660.775	919.314
660.903	918.966
661.031	910.492
661.160	918.771
661.288	925.517
661.416	923.229
661.544	919.602
661.672	914.559
661.800	917.000
661.928	917.127
662.056	906.636
662.185	909.754
662.313	909.051
662.441	911.856
662.569	909.415
662.697	905.864
662.825	910.593
662.953	903.093
663.081	896.678
