70-70-0_at_679.99nm_cut_at_1286.00Y_01.dat
24.01.2024
11:25:13
cut middle at Y: 1286.00
top cursor: 1345 down cursor: 1227 mean of: 118 lines , 2560 datapoints
wavelength(nm)	intensity[arb. units]
515.994	417.636
516.122	399.390
516.250	396.551
516.378	391.636
516.506	393.169
516.635	395.610
516.763	398.458
516.891	402.034
517.019	400.576
517.147	396.542
517.275	399.246
517.403	400.975
517.531	400.280
517.660	396.093
517.788	400.144
517.916	405.186
518.044	402.475
518.172	404.864
518.300	406.500
518.428	401.322
518.556	407.390
518.685	408.890
518.813	405.034
518.941	412.831
519.069	412.636
519.197	404.966
519.325	411.814
519.453	412.746
519.581	416.483
519.710	412.034
519.838	415.678
519.966	411.966
520.094	413.500
520.222	418.373
520.350	418.847
520.478	423.347
520.606	420.153
520.735	423.347
520.863	422.568
520.991	429.458
521.119	427.271
521.247	433.517
521.375	426.085
521.503	428.254
521.631	432.169
521.760	431.941
521.888	433.508
522.016	436.017
522.144	431.737
522.272	439.847
522.400	438.508
522.528	444.008
522.656	440.924
522.785	446.712
522.913	442.525
523.041	440.847
523.169	441.237
523.297	442.195
523.425	443.847
523.553	442.331
523.681	444.941
523.810	451.602
523.938	452.025
524.066	449.525
524.194	450.992
524.322	453.831
524.450	447.568
524.578	445.212
524.706	453.508
524.835	453.661
524.963	449.153
525.091	450.966
525.219	449.458
525.347	451.229
525.475	455.441
525.603	450.508
525.731	456.508
525.860	457.059
525.988	450.280
526.116	452.661
526.244	457.864
526.372	447.364
526.500	455.263
526.628	456.797
526.756	454.449
526.885	461.415
527.013	454.322
527.141	458.686
527.269	453.441
527.397	458.297
527.525	461.551
527.653	460.576
527.781	459.500
527.910	465.364
528.038	465.051
528.166	467.169
528.294	463.203
528.422	460.178
528.550	469.229
528.678	466.254
528.806	473.636
528.935	473.161
529.063	468.212
529.191	472.517
529.319	472.466
529.447	475.280
529.575	469.941
529.703	471.263
529.831	473.500
529.960	468.915
530.088	472.076
530.216	474.305
530.344	472.136
530.472	475.619
530.600	476.492
530.728	477.059
530.856	480.585
530.985	477.915
531.113	478.102
531.241	479.619
531.369	489.958
531.497	478.941
531.625	478.856
531.753	478.915
531.881	481.864
532.010	483.822
532.138	481.737
532.266	478.441
532.394	482.314
532.522	479.458
532.650	479.610
532.778	480.958
532.906	478.356
533.035	479.186
533.163	481.898
533.291	478.263
533.419	479.695
533.547	480.093
533.675	481.483
533.803	478.915
533.931	482.619
534.060	485.644
534.188	486.305
534.316	489.008
534.444	482.975
534.572	486.958
534.700	489.729
534.828	487.695
534.956	489.407
535.085	490.025
535.213	493.822
535.341	490.110
535.469	496.458
535.597	496.915
535.725	492.161
535.853	500.831
535.981	497.136
536.110	503.729
536.238	499.771
536.366	507.873
536.494	497.297
536.622	511.373
536.750	510.890
536.878	502.398
537.006	513.034
537.135	509.915
537.263	512.331
537.391	515.331
537.519	514.356
537.647	515.085
537.775	521.297
537.903	521.390
538.031	517.373
538.160	517.500
538.288	525.847
538.416	524.347
538.544	521.771
538.672	523.178
538.800	523.000
538.928	526.678
539.056	531.381
539.185	530.229
539.313	527.754
539.441	526.059
539.569	528.127
539.697	532.559
539.825	538.661
539.953	533.169
540.081	528.339
540.210	535.373
540.338	536.703
540.466	538.195
540.594	538.822
540.722	530.568
540.850	540.144
540.978	533.331
541.106	535.746
541.235	547.593
541.363	535.466
541.491	538.483
541.619	537.424
541.747	541.644
541.875	537.424
542.003	538.500
542.131	539.169
542.260	546.042
542.388	541.034
542.516	545.797
542.644	543.932
542.772	546.746
542.900	544.898
543.028	548.695
543.156	548.500
543.285	547.237
543.413	552.356
543.541	551.517
543.669	553.153
543.797	559.432
543.925	546.839
544.053	550.390
544.181	555.288
544.310	552.398
544.438	550.534
544.566	553.059
544.694	554.475
544.822	556.780
544.950	551.568
545.078	555.864
545.206	556.263
545.335	557.093
545.463	552.364
545.591	557.661
545.719	553.246
545.847	546.822
545.975	557.805
546.103	554.390
546.231	554.754
546.360	558.619
546.488	559.161
546.616	560.720
546.744	561.373
546.872	554.331
547.000	563.746
547.128	558.568
547.256	558.627
547.385	562.508
547.513	554.110
547.641	558.381
547.769	561.093
547.897	562.712
548.025	561.780
548.153	559.831
548.281	554.873
548.410	565.517
548.538	563.517
548.666	572.271
548.794	561.017
548.922	569.517
549.050	567.636
549.178	564.559
549.306	570.034
549.435	570.314
549.563	570.314
549.691	559.025
549.819	575.025
549.947	574.119
550.075	574.500
550.203	570.890
550.331	569.525
550.460	572.941
550.588	577.119
550.716	579.695
550.844	570.161
550.972	573.314
551.100	577.246
551.228	576.814
551.356	576.847
551.485	575.636
551.613	579.686
551.741	571.178
551.869	570.695
551.997	573.822
552.125	574.593
552.253	572.847
552.381	571.483
552.510	570.983
552.638	576.093
552.766	574.797
552.894	569.280
553.022	573.424
553.150	568.525
553.278	574.212
553.406	571.619
553.535	571.805
553.663	571.254
553.791	571.161
553.919	569.407
554.047	574.703
554.175	576.534
554.303	566.686
554.431	569.619
554.560	567.280
554.688	574.246
554.816	574.525
554.944	572.932
555.072	575.237
555.200	571.339
555.328	566.881
555.456	575.669
555.585	575.085
555.713	573.915
555.841	577.153
555.969	570.051
556.097	580.229
556.225	577.881
556.353	576.975
556.481	579.144
556.610	581.627
556.738	582.661
556.866	581.212
556.994	578.949
557.122	580.602
557.250	578.898
557.378	585.551
557.506	585.593
557.635	582.458
557.763	590.644
557.891	592.288
558.019	581.780
558.147	589.492
558.275	586.958
558.403	588.686
558.531	583.924
558.660	588.881
558.788	592.186
558.916	589.314
559.044	582.754
559.172	588.729
559.300	597.059
559.428	591.958
559.556	593.415
559.685	593.602
559.813	585.102
559.941	594.907
560.069	596.314
560.197	599.508
560.325	600.873
560.453	595.008
560.581	594.068
560.710	594.331
560.838	595.686
560.966	594.890
561.094	599.178
561.222	602.153
561.350	596.941
561.478	600.898
561.606	598.500
561.735	590.153
561.863	597.542
561.991	594.127
562.119	595.475
562.247	595.339
562.375	593.153
562.503	599.508
562.631	592.390
562.760	599.771
562.888	600.186
563.016	594.610
563.144	600.144
563.272	604.737
563.400	588.432
563.528	597.729
563.656	600.195
563.785	600.686
563.913	600.203
564.041	594.297
564.169	598.585
564.297	598.525
564.425	598.102
564.553	602.042
564.681	603.381
564.810	603.508
564.938	611.492
565.066	602.669
565.194	612.136
565.322	610.102
565.450	613.110
565.578	612.441
565.706	614.093
565.835	623.754
565.963	618.280
566.091	609.517
566.219	617.627
566.347	617.517
566.475	614.500
566.603	616.898
566.731	622.627
566.860	623.390
566.988	621.085
567.116	625.322
567.244	626.975
567.372	634.297
567.500	631.644
567.628	629.864
567.756	632.407
567.885	640.983
568.013	637.017
568.141	639.076
568.269	633.534
568.397	634.559
568.525	642.347
568.653	644.975
568.781	646.398
568.910	654.195
569.038	653.653
569.166	642.542
569.294	648.398
569.422	651.339
569.550	644.805
569.678	658.398
569.806	656.153
569.935	654.729
570.063	658.398
570.191	657.788
570.319	657.822
570.447	665.246
570.575	661.288
570.703	666.119
570.831	662.839
570.960	663.229
571.088	668.924
571.216	672.000
571.344	667.136
571.472	671.831
571.600	677.271
571.728	670.678
571.856	674.585
571.985	677.144
572.113	675.653
572.241	673.415
572.369	678.136
572.497	676.458
572.625	685.517
572.753	678.347
572.881	679.729
573.010	683.042
573.138	687.254
573.266	687.831
573.394	687.178
573.522	687.644
573.650	685.390
573.778	690.568
573.906	690.763
574.035	690.636
574.163	689.847
574.291	686.568
574.419	693.814
574.547	696.068
574.675	700.483
574.803	699.110
574.931	700.847
575.060	701.339
575.188	693.347
575.316	702.339
575.444	697.737
575.572	708.907
575.700	692.771
575.828	709.085
575.956	715.864
576.085	711.610
576.213	709.483
576.341	704.390
576.469	703.797
576.597	706.432
576.725	703.051
576.853	705.085
576.981	710.466
577.110	711.017
577.238	719.822
577.366	706.636
577.494	703.331
577.622	701.500
577.750	710.568
577.878	707.686
578.006	718.525
578.135	716.127
578.263	717.483
578.391	719.856
578.519	714.924
578.647	720.907
578.775	712.593
578.903	718.661
579.031	717.627
579.160	720.924
579.288	721.280
579.416	723.958
579.544	723.212
579.672	724.068
579.800	732.678
579.928	719.288
580.056	719.797
580.185	726.136
580.313	726.653
580.441	733.483
580.569	725.602
580.697	729.602
580.825	736.195
580.953	733.737
581.081	741.390
581.210	745.449
581.338	743.492
581.466	747.746
581.594	751.288
581.722	748.042
581.850	748.398
581.978	745.898
582.106	755.839
582.235	753.364
582.363	754.661
582.491	753.686
582.619	755.356
582.747	762.814
582.875	763.051
583.003	770.983
583.131	771.025
583.260	771.924
583.388	772.390
583.516	773.381
583.644	773.661
583.772	772.661
583.900	789.669
584.028	784.246
584.156	784.339
584.285	785.754
584.413	794.686
584.541	801.347
584.669	794.551
584.797	798.593
584.925	794.525
585.053	805.864
585.181	807.805
585.310	802.000
585.438	809.703
585.566	803.534
585.694	821.559
585.822	825.169
585.950	820.000
586.078	828.780
586.206	817.602
586.335	826.136
586.463	828.025
586.591	830.542
586.719	831.534
586.847	836.373
586.975	834.907
587.103	838.305
587.231	831.119
587.360	835.763
587.488	844.229
587.616	844.203
587.744	844.229
587.872	842.856
588.000	837.051
588.128	849.263
588.256	846.873
588.385	848.695
588.513	843.042
588.641	853.797
588.769	857.449
588.897	854.941
589.025	848.992
589.153	858.814
589.281	853.661
589.410	861.585
589.538	856.305
589.666	860.339
589.794	854.280
589.922	867.949
590.050	864.034
590.178	860.712
590.306	864.932
590.435	859.492
590.563	858.042
590.691	872.347
590.819	859.441
590.947	880.000
591.075	870.669
591.203	862.576
591.331	871.805
591.460	873.932
591.588	861.864
591.716	872.576
591.844	872.314
591.972	883.729
592.100	879.263
592.228	873.958
592.356	883.229
592.485	871.746
592.613	873.508
592.741	885.500
592.869	878.805
592.997	889.229
593.125	886.381
593.253	895.254
593.381	887.195
593.510	896.924
593.638	890.822
593.766	902.771
593.894	895.466
594.022	893.627
594.150	896.814
594.278	908.500
594.406	897.008
594.535	901.602
594.663	908.966
594.791	909.890
594.919	911.805
595.047	916.864
595.175	916.331
595.303	915.593
595.431	914.220
595.560	922.881
595.688	918.492
595.816	919.975
595.944	927.559
596.072	924.042
596.200	924.924
596.328	926.042
596.456	924.246
596.585	931.364
596.713	944.932
596.841	931.364
596.969	939.000
597.097	936.966
597.225	931.703
597.353	945.593
597.481	939.229
597.610	943.339
597.738	949.271
597.866	940.093
597.994	948.568
598.122	960.102
598.250	951.898
598.378	953.356
598.506	947.398
598.635	946.788
598.763	955.051
598.891	945.814
599.019	955.797
599.147	957.975
599.275	959.449
599.403	956.186
599.531	958.449
599.660	963.780
599.788	960.559
599.916	961.534
600.044	962.644
600.172	972.254
600.300	968.339
600.428	967.712
600.556	969.229
600.685	978.898
600.813	977.237
600.941	984.525
601.069	981.890
601.197	984.229
601.325	985.754
601.453	989.780
601.581	990.788
601.710	993.492
601.838	997.322
601.966	987.949
602.094	993.254
602.222	997.737
602.350	986.873
602.478	1004.593
602.606	1003.703
602.735	1005.856
602.863	1014.686
602.991	1013.847
603.119	1019.695
603.247	1017.305
603.375	1017.110
603.503	1007.517
603.631	1024.314
603.760	1019.119
603.888	1025.415
604.016	1017.195
604.144	1027.593
604.272	1035.263
604.400	1034.144
604.528	1035.017
604.656	1035.822
604.785	1031.381
604.913	1041.653
605.041	1041.619
605.169	1039.695
605.297	1040.356
605.425	1040.737
605.553	1041.500
605.681	1043.483
605.810	1041.831
605.938	1039.983
606.066	1045.407
606.194	1049.966
606.322	1045.703
606.450	1053.390
606.578	1054.763
606.706	1061.110
606.835	1056.398
606.963	1059.653
607.091	1053.559
607.219	1051.661
607.347	1049.890
607.475	1064.364
607.603	1052.314
607.731	1055.093
607.860	1049.390
607.988	1062.958
608.116	1056.593
608.244	1052.169
608.372	1053.186
608.500	1053.958
608.628	1062.534
608.756	1061.169
608.885	1059.161
609.013	1056.127
609.141	1052.102
609.269	1062.390
609.397	1046.703
609.525	1052.441
609.653	1058.890
609.781	1058.746
609.910	1046.814
610.038	1054.737
610.166	1058.398
610.294	1054.771
610.422	1058.424
610.550	1055.492
610.678	1055.746
610.806	1059.720
610.935	1053.678
611.063	1047.915
611.191	1058.280
611.319	1058.322
611.447	1056.373
611.575	1058.093
611.703	1048.949
611.831	1052.534
611.960	1050.102
612.088	1048.415
612.216	1060.636
612.344	1060.534
612.472	1049.915
612.600	1051.686
612.728	1053.305
612.856	1053.475
612.985	1048.822
613.113	1045.356
613.241	1058.737
613.369	1057.254
613.497	1049.525
613.625	1054.178
613.753	1044.186
613.881	1053.992
614.010	1049.492
614.138	1048.720
614.266	1043.008
614.394	1050.042
614.522	1048.780
614.650	1056.602
614.778	1040.746
614.906	1060.483
615.035	1050.568
615.163	1042.059
615.291	1045.059
615.419	1053.839
615.547	1035.983
615.675	1040.568
615.803	1043.314
615.931	1065.466
616.060	1062.525
616.188	1058.093
616.316	1049.297
616.444	1048.254
616.572	1049.907
616.700	1040.754
616.828	1056.475
616.956	1052.331
617.085	1060.136
617.213	1064.093
617.341	1048.983
617.469	1051.127
617.597	1061.992
617.725	1059.644
617.853	1048.364
617.981	1057.576
618.110	1067.551
618.238	1060.492
618.366	1068.042
618.494	1063.627
618.622	1062.364
618.750	1056.085
618.878	1068.449
619.006	1067.771
619.135	1068.797
619.263	1078.864
619.391	1064.559
619.519	1067.534
619.647	1080.220
619.775	1069.898
619.903	1077.042
620.031	1077.576
620.160	1076.051
620.288	1073.034
620.416	1086.780
620.544	1076.068
620.672	1081.822
620.800	1073.220
620.928	1079.703
621.056	1084.212
621.185	1078.068
621.313	1088.797
621.441	1092.415
621.569	1097.695
621.697	1090.246
621.825	1084.593
621.953	1089.958
622.081	1099.356
622.210	1095.042
622.338	1082.873
622.466	1081.305
622.594	1100.686
622.722	1095.008
622.850	1092.992
622.978	1094.720
623.106	1095.475
623.235	1099.059
623.363	1098.136
623.491	1081.949
623.619	1089.093
623.747	1088.008
623.875	1091.178
624.003	1083.212
624.131	1086.585
624.260	1072.432
624.388	1088.246
624.516	1096.568
624.644	1090.432
624.772	1080.373
624.900	1088.983
625.028	1081.754
625.156	1103.669
625.285	1082.924
625.413	1092.958
625.541	1080.720
625.669	1086.500
625.797	1085.686
625.925	1073.975
626.053	1071.881
626.181	1088.229
626.310	1073.881
626.438	1073.653
626.566	1073.856
626.694	1068.864
626.822	1071.941
626.950	1080.551
627.078	1067.475
627.206	1069.585
627.335	1073.288
627.463	1068.678
627.591	1071.153
627.719	1068.881
627.847	1071.924
627.975	1074.500
628.103	1058.720
628.231	1072.737
628.360	1070.771
628.488	1069.797
628.616	1063.864
628.744	1060.610
628.872	1055.237
629.000	1056.339
629.128	1061.864
629.256	1075.212
629.385	1057.873
629.513	1053.364
629.641	1060.051
629.769	1055.153
629.897	1065.966
630.025	1062.500
630.153	1053.093
630.281	1051.424
630.410	1048.246
630.538	1062.034
630.666	1053.915
630.794	1054.746
630.922	1037.119
631.050	1033.966
631.178	1048.466
631.306	1047.068
631.435	1044.254
631.563	1051.822
631.691	1035.661
631.819	1042.339
631.947	1040.678
632.075	1038.763
632.203	1047.636
632.331	1038.466
632.460	1034.381
632.588	1032.432
632.716	1037.678
632.844	1033.559
632.972	1033.695
633.100	1037.203
633.228	1033.992
633.356	1023.102
633.485	1023.076
633.613	1032.975
633.741	1021.737
633.869	1024.331
633.997	1022.559
634.125	1020.119
634.253	1008.898
634.381	1006.339
634.510	1014.720
634.638	1001.686
634.766	1001.203
634.894	1000.508
635.022	1003.500
635.150	998.424
635.278	1012.949
635.406	1005.339
635.535	1010.771
635.663	1005.941
635.791	998.568
635.919	1006.525
636.047	993.983
636.175	989.669
636.303	1004.746
636.431	990.390
636.560	996.898
636.688	994.992
636.816	992.975
636.944	986.220
637.072	985.653
637.200	989.458
637.328	969.720
637.456	984.763
637.585	974.068
637.713	986.263
637.841	980.585
637.969	978.636
638.097	970.508
638.225	968.602
638.353	981.102
638.481	977.322
638.610	977.314
638.738	970.992
638.866	964.483
638.994	962.907
639.122	966.525
639.250	968.102
639.378	966.398
639.506	950.653
639.635	968.720
639.763	951.500
639.891	963.831
640.019	963.119
640.147	954.280
640.275	953.737
640.403	959.686
640.531	951.975
640.660	951.712
640.788	959.271
640.916	950.127
641.044	955.754
641.172	947.076
641.300	954.831
641.428	948.661
641.556	955.042
641.685	945.551
641.813	945.246
641.941	950.551
642.069	945.847
642.197	947.805
642.325	942.576
642.453	949.873
642.581	941.381
642.710	930.229
642.838	943.653
642.966	938.805
643.094	930.771
643.222	931.695
643.350	935.398
643.478	931.339
643.606	942.381
643.735	936.932
643.863	925.178
643.991	938.831
644.119	936.551
644.247	925.814
644.375	927.000
644.503	924.322
644.631	938.195
644.760	929.661
644.888	926.475
645.016	925.805
645.144	933.407
645.272	922.703
645.400	914.661
645.528	923.203
645.656	912.076
645.785	919.398
645.913	913.051
646.041	924.373
646.169	910.136
646.297	903.331
646.425	909.839
646.553	899.144
646.681	904.025
646.810	902.754
646.938	903.619
647.066	895.703
647.194	900.839
647.322	901.831
647.450	888.712
647.578	893.559
647.706	892.737
647.835	891.305
647.963	881.788
648.091	894.398
648.219	877.508
648.347	883.195
648.475	876.364
648.603	878.924
648.731	877.585
648.860	867.000
648.988	871.780
649.116	875.907
649.244	863.686
649.372	859.542
649.500	858.449
649.628	863.059
649.756	854.551
649.885	855.339
650.013	849.161
650.141	842.110
650.269	836.814
650.397	847.678
650.525	840.907
650.653	839.441
650.781	833.042
650.910	828.932
651.038	827.805
651.166	825.271
651.294	819.297
651.422	815.636
651.550	816.161
651.678	808.195
651.806	813.034
651.935	812.246
652.063	811.661
652.191	793.297
652.319	804.314
652.447	800.831
652.575	794.542
652.703	793.500
652.831	791.864
652.960	785.508
653.088	783.237
653.216	779.568
653.344	775.602
653.472	776.008
653.600	775.788
653.728	771.746
653.856	766.975
653.985	766.831
654.113	764.805
654.241	762.068
654.369	761.720
654.497	767.958
654.625	753.127
654.753	758.059
654.881	760.542
655.010	755.508
655.138	755.220
655.266	746.669
655.394	742.169
655.522	747.585
655.650	734.847
655.778	733.737
655.906	744.678
656.035	738.907
656.163	738.780
656.291	732.314
656.419	727.941
656.547	734.593
656.675	725.627
656.803	731.195
656.931	728.246
657.060	720.331
657.188	720.178
657.316	721.975
657.444	721.093
657.572	715.398
657.700	719.246
657.828	711.398
657.956	706.678
658.085	718.068
658.213	709.729
658.341	706.703
658.469	705.381
658.597	698.593
658.725	704.254
658.853	692.983
658.981	692.449
659.110	687.288
659.238	694.720
659.366	693.915
659.494	680.314
659.622	687.483
659.750	687.661
659.878	687.017
660.006	685.915
660.135	684.797
660.263	675.347
660.391	673.017
660.519	677.839
660.647	677.737
660.775	668.119
660.903	668.932
661.031	670.627
661.160	664.551
661.288	664.407
661.416	661.449
661.544	658.771
661.672	659.712
661.800	662.856
661.928	657.415
662.056	649.508
662.185	651.254
662.313	647.915
662.441	649.068
662.569	650.458
662.697	650.797
662.825	648.593
662.953	649.492
663.081	643.720
