70-70-unpol_at_679.99nm_cut_at_1286.00Y_01.dat
24.01.2024
11:24:40
cut middle at Y: 1286.00
top cursor: 1345 down cursor: 1227 mean of: 118 lines , 2560 datapoints
wavelength(nm)	intensity[arb. units]
515.994	1151.983
516.122	1088.195
516.250	1070.169
516.378	1062.153
516.506	1066.322
516.635	1070.890
516.763	1076.297
516.891	1084.398
517.019	1087.220
517.147	1083.254
517.275	1090.814
517.403	1088.771
517.531	1081.068
517.660	1085.966
517.788	1087.271
517.916	1088.771
518.044	1086.475
518.172	1089.110
518.300	1097.169
518.428	1094.432
518.556	1095.941
518.685	1102.636
518.813	1098.966
518.941	1104.432
519.069	1111.542
519.197	1093.890
519.325	1111.076
519.453	1103.678
519.581	1124.000
519.710	1117.424
519.838	1124.483
519.966	1127.356
520.094	1129.025
520.222	1117.720
520.350	1142.144
520.478	1150.534
520.606	1154.008
520.735	1148.712
520.863	1146.186
520.991	1164.932
521.119	1157.186
521.247	1161.042
521.375	1167.356
521.503	1168.525
521.631	1169.644
521.760	1164.593
521.888	1178.839
522.016	1175.017
522.144	1184.288
522.272	1185.797
522.400	1189.407
522.528	1198.432
522.656	1204.025
522.785	1208.890
522.913	1208.525
523.041	1205.551
523.169	1202.229
523.297	1205.839
523.425	1215.051
523.553	1207.932
523.681	1211.746
523.810	1222.246
523.938	1219.847
524.066	1217.941
524.194	1222.695
524.322	1214.644
524.450	1224.763
524.578	1207.975
524.706	1235.669
524.835	1219.941
524.963	1234.390
525.091	1221.466
525.219	1237.593
525.347	1229.322
525.475	1231.907
525.603	1228.746
525.731	1236.805
525.860	1233.788
525.988	1227.678
526.116	1217.593
526.244	1232.475
526.372	1218.992
526.500	1232.542
526.628	1251.136
526.756	1230.932
526.885	1243.890
527.013	1231.068
527.141	1238.788
527.269	1233.390
527.397	1245.831
527.525	1251.703
527.653	1246.153
527.781	1254.136
527.910	1256.695
528.038	1261.559
528.166	1262.856
528.294	1259.153
528.422	1252.508
528.550	1263.619
528.678	1275.144
528.806	1272.051
528.935	1275.534
529.063	1273.441
529.191	1280.288
529.319	1288.966
529.447	1285.500
529.575	1284.593
529.703	1279.814
529.831	1295.119
529.960	1290.525
530.088	1290.441
530.216	1301.085
530.344	1297.136
530.472	1303.153
530.600	1307.729
530.728	1316.525
530.856	1309.602
530.985	1321.390
531.113	1306.263
531.241	1312.008
531.369	1324.568
531.497	1311.271
531.625	1318.839
531.753	1311.025
531.881	1327.229
532.010	1323.500
532.138	1314.466
532.266	1319.254
532.394	1319.195
532.522	1303.525
532.650	1317.805
532.778	1333.475
532.906	1316.949
533.035	1325.966
533.163	1317.475
533.291	1317.390
533.419	1304.203
533.547	1326.771
533.675	1323.797
533.803	1307.492
533.931	1320.754
534.060	1314.881
534.188	1321.720
534.316	1326.127
534.444	1319.161
534.572	1324.805
534.700	1325.017
534.828	1324.941
534.956	1339.051
535.085	1334.720
535.213	1336.703
535.341	1347.805
535.469	1339.068
535.597	1347.966
535.725	1358.492
535.853	1357.492
535.981	1357.178
536.110	1370.873
536.238	1383.822
536.366	1381.127
536.494	1376.746
536.622	1386.347
536.750	1383.483
536.878	1385.263
537.006	1390.644
537.135	1403.881
537.263	1412.593
537.391	1405.814
537.519	1405.000
537.647	1424.644
537.775	1410.873
537.903	1423.644
538.031	1426.703
538.160	1423.458
538.288	1428.636
538.416	1432.729
538.544	1419.322
538.672	1439.415
538.800	1444.059
538.928	1438.051
539.056	1461.661
539.185	1440.051
539.313	1439.042
539.441	1459.322
539.569	1444.483
539.697	1452.686
539.825	1451.102
539.953	1455.441
540.081	1448.110
540.210	1457.669
540.338	1462.085
540.466	1470.237
540.594	1473.008
540.722	1437.720
540.850	1472.441
540.978	1463.720
541.106	1466.466
541.235	1482.890
541.363	1457.119
541.491	1465.373
541.619	1463.059
541.747	1474.288
541.875	1469.263
542.003	1470.720
542.131	1477.780
542.260	1477.203
542.388	1475.195
542.516	1487.703
542.644	1490.856
542.772	1488.144
542.900	1480.686
543.028	1497.136
543.156	1497.119
543.285	1491.585
543.413	1499.415
543.541	1499.441
543.669	1502.627
543.797	1508.229
543.925	1504.915
544.053	1503.737
544.181	1512.153
544.310	1501.356
544.438	1498.636
544.566	1499.229
544.694	1521.458
544.822	1514.703
544.950	1514.186
545.078	1519.297
545.206	1512.178
545.335	1529.958
545.463	1520.449
545.591	1520.678
545.719	1531.008
545.847	1518.966
545.975	1519.119
546.103	1519.525
546.231	1526.924
546.360	1543.254
546.488	1540.246
546.616	1535.085
546.744	1537.093
546.872	1537.975
547.000	1551.856
547.128	1537.263
547.256	1543.475
547.385	1536.822
547.513	1540.364
547.641	1542.746
547.769	1549.966
547.897	1550.576
548.025	1552.831
548.153	1569.068
548.281	1553.246
548.410	1555.008
548.538	1565.102
548.666	1565.017
548.794	1558.636
548.922	1570.331
549.050	1565.093
549.178	1559.441
549.306	1574.695
549.435	1586.008
549.563	1578.390
549.691	1573.754
549.819	1576.102
549.947	1590.153
550.075	1583.534
550.203	1571.102
550.331	1575.898
550.460	1583.907
550.588	1582.703
550.716	1593.068
550.844	1580.288
550.972	1570.644
551.100	1574.322
551.228	1579.042
551.356	1566.466
551.485	1581.034
551.613	1570.008
551.741	1556.449
551.869	1556.915
551.997	1556.331
552.125	1560.983
552.253	1567.907
552.381	1560.322
552.510	1563.864
552.638	1551.585
552.766	1564.814
552.894	1548.297
553.022	1556.475
553.150	1556.161
553.278	1552.229
553.406	1548.492
553.535	1550.644
553.663	1555.102
553.791	1552.712
553.919	1558.873
554.047	1554.559
554.175	1547.229
554.303	1553.246
554.431	1547.636
554.560	1552.297
554.688	1563.678
554.816	1552.932
554.944	1564.932
555.072	1560.305
555.200	1566.212
555.328	1556.932
555.456	1576.576
555.585	1565.127
555.713	1576.398
555.841	1578.890
555.969	1562.110
556.097	1584.763
556.225	1575.475
556.353	1603.093
556.481	1582.966
556.610	1604.703
556.738	1593.458
556.866	1604.068
556.994	1586.305
557.122	1594.686
557.250	1603.432
557.378	1617.915
557.506	1608.881
557.635	1600.788
557.763	1617.737
557.891	1630.458
558.019	1609.068
558.147	1630.119
558.275	1620.153
558.403	1632.627
558.531	1637.322
558.660	1626.424
558.788	1632.381
558.916	1628.034
559.044	1628.127
559.172	1633.737
559.300	1650.102
559.428	1646.254
559.556	1642.280
559.685	1646.966
559.813	1642.110
559.941	1652.610
560.069	1645.822
560.197	1651.169
560.325	1662.008
560.453	1649.653
560.581	1656.356
560.710	1650.534
560.838	1655.093
560.966	1645.288
561.094	1662.186
561.222	1654.492
561.350	1640.915
561.478	1647.415
561.606	1658.754
561.735	1650.085
561.863	1646.085
561.991	1647.203
562.119	1639.432
562.247	1644.822
562.375	1642.034
562.503	1659.669
562.631	1642.822
562.760	1642.593
562.888	1659.508
563.016	1644.161
563.144	1642.881
563.272	1645.924
563.400	1636.186
563.528	1650.831
563.656	1661.017
563.785	1657.686
563.913	1656.966
564.041	1633.754
564.169	1663.381
564.297	1654.797
564.425	1648.288
564.553	1675.669
564.681	1669.661
564.810	1663.458
564.938	1668.169
565.066	1657.763
565.194	1675.932
565.322	1692.822
565.450	1679.169
565.578	1689.381
565.706	1678.720
565.835	1696.178
565.963	1695.915
566.091	1683.008
566.219	1687.017
566.347	1695.093
566.475	1686.161
566.603	1700.500
566.731	1702.771
566.860	1725.051
566.988	1700.856
567.116	1729.839
567.244	1726.568
567.372	1735.568
567.500	1735.568
567.628	1735.788
567.756	1734.839
567.885	1751.814
568.013	1750.102
568.141	1763.110
568.269	1766.864
568.397	1752.898
568.525	1755.373
568.653	1769.983
568.781	1772.220
568.910	1800.466
569.038	1789.297
569.166	1780.415
569.294	1786.729
569.422	1797.017
569.550	1796.297
569.678	1800.186
569.806	1798.331
569.935	1801.305
570.063	1814.237
570.191	1824.127
570.319	1824.602
570.447	1823.347
570.575	1823.907
570.703	1830.949
570.831	1842.161
570.960	1836.458
571.088	1839.102
571.216	1839.017
571.344	1843.966
571.472	1853.864
571.600	1859.966
571.728	1851.212
571.856	1857.661
571.985	1873.068
572.113	1873.797
572.241	1869.941
572.369	1887.034
572.497	1889.178
572.625	1891.763
572.753	1879.161
572.881	1893.127
573.010	1895.085
573.138	1913.110
573.266	1898.237
573.394	1910.466
573.522	1911.127
573.650	1918.314
573.778	1909.576
573.906	1904.839
574.035	1903.695
574.163	1909.424
574.291	1910.203
574.419	1925.915
574.547	1937.407
574.675	1942.525
574.803	1937.805
574.931	1929.534
575.060	1955.805
575.188	1931.949
575.316	1935.644
575.444	1943.653
575.572	1951.288
575.700	1930.144
575.828	1952.831
575.956	1955.076
576.085	1940.339
576.213	1956.000
576.341	1941.839
576.469	1953.814
576.597	1936.576
576.725	1945.856
576.853	1940.093
576.981	1945.542
577.110	1941.246
577.238	1960.975
577.366	1945.144
577.494	1950.432
577.622	1945.983
577.750	1970.941
577.878	1950.559
578.006	1972.212
578.135	1966.271
578.263	1963.797
578.391	1975.805
578.519	1972.203
578.647	1976.119
578.775	1977.466
578.903	1960.737
579.031	1980.356
579.160	1978.780
579.288	1972.873
579.416	1968.551
579.544	1988.432
579.672	1988.076
579.800	2007.068
579.928	1983.331
580.056	1980.525
580.185	1976.949
580.313	1986.924
580.441	1997.186
580.569	1990.364
580.697	1994.203
580.825	2011.975
580.953	2021.364
581.081	2019.280
581.210	2025.263
581.338	2049.017
581.466	2027.754
581.594	2053.008
581.722	2031.432
581.850	2030.424
581.978	2048.517
582.106	2049.119
582.235	2062.576
582.363	2053.068
582.491	2060.686
582.619	2064.339
582.747	2065.229
582.875	2083.305
583.003	2085.076
583.131	2087.661
583.260	2092.619
583.388	2116.483
583.516	2120.788
583.644	2119.669
583.772	2121.788
583.900	2143.593
584.028	2150.373
584.156	2141.864
584.285	2159.958
584.413	2154.314
584.541	2167.051
584.669	2169.797
584.797	2183.966
584.925	2184.017
585.053	2190.653
585.181	2200.508
585.310	2206.856
585.438	2200.381
585.566	2209.881
585.694	2242.178
585.822	2225.169
585.950	2230.805
586.078	2244.169
586.206	2255.415
586.335	2252.449
586.463	2272.703
586.591	2277.712
586.719	2285.466
586.847	2284.322
586.975	2270.881
587.103	2299.271
587.231	2283.542
587.360	2283.898
587.488	2311.212
587.616	2294.983
587.744	2316.136
587.872	2297.619
588.000	2311.119
588.128	2318.898
588.256	2318.356
588.385	2316.712
588.513	2310.492
588.641	2314.695
588.769	2358.720
588.897	2326.712
589.025	2346.136
589.153	2327.831
589.281	2329.915
589.410	2345.449
589.538	2343.263
589.666	2348.169
589.794	2343.398
589.922	2358.958
590.050	2359.627
590.178	2343.593
590.306	2361.186
590.435	2362.127
590.563	2353.492
590.691	2381.653
590.819	2381.907
590.947	2401.907
591.075	2394.856
591.203	2381.814
591.331	2387.322
591.460	2386.720
591.588	2393.568
591.716	2413.432
591.844	2381.229
591.972	2432.797
592.100	2407.246
592.228	2396.398
592.356	2401.873
592.485	2403.661
592.613	2395.085
592.741	2440.136
592.869	2404.983
592.997	2431.381
593.125	2434.915
593.253	2451.754
593.381	2461.695
593.510	2458.322
593.638	2432.992
593.766	2452.068
593.894	2442.847
594.022	2463.220
594.150	2469.992
594.278	2480.051
594.406	2472.907
594.535	2484.653
594.663	2477.119
594.791	2489.831
594.919	2511.898
595.047	2502.797
595.175	2513.432
595.303	2513.678
595.431	2511.483
595.560	2554.517
595.688	2543.788
595.816	2567.017
595.944	2529.932
596.072	2538.432
596.200	2531.805
596.328	2538.458
596.456	2522.729
596.585	2530.771
596.713	2545.966
596.841	2573.754
596.969	2553.500
597.097	2584.246
597.225	2581.068
597.353	2605.483
597.481	2600.873
597.610	2586.975
597.738	2621.695
597.866	2608.220
597.994	2614.966
598.122	2623.246
598.250	2669.475
598.378	2632.475
598.506	2609.508
598.635	2649.280
598.763	2627.559
598.891	2665.508
599.019	2651.381
599.147	2671.636
599.275	2651.458
599.403	2678.407
599.531	2684.771
599.660	2691.415
599.788	2677.873
599.916	2685.983
600.044	2745.593
600.172	2699.161
600.300	2699.644
600.428	2680.339
600.556	2717.568
600.685	2781.076
600.813	2728.093
600.941	2765.161
601.069	2706.508
601.197	2746.517
601.325	2745.771
601.453	2724.576
601.581	2751.915
601.710	2775.025
601.838	2765.119
601.966	2853.110
602.094	2843.720
602.222	2799.398
602.350	2775.229
602.478	2802.805
602.606	2835.212
602.735	2799.814
602.863	2820.949
602.991	2847.881
603.119	2818.856
603.247	2804.737
603.375	2848.593
603.503	2850.712
603.631	2866.203
603.760	2863.254
603.888	2880.534
604.016	2859.347
604.144	2867.678
604.272	2890.415
604.400	2907.932
604.528	2899.814
604.656	2919.203
604.785	2922.932
604.913	2958.593
605.041	2902.381
605.169	2960.051
605.297	2935.780
605.425	2948.492
605.553	2945.703
605.681	2937.161
605.810	2981.517
605.938	2967.797
606.066	2966.398
606.194	2969.924
606.322	2972.186
606.450	2970.856
606.578	2959.424
606.706	2999.110
606.835	3008.788
606.963	3033.373
607.091	3029.508
607.219	2999.508
607.347	2965.432
607.475	3015.864
607.603	3011.000
607.731	2986.025
607.860	3010.263
607.988	2999.771
608.116	3041.076
608.244	3003.873
608.372	3036.441
608.500	3031.085
608.628	2991.746
608.756	2993.110
608.885	3059.975
609.013	2990.992
609.141	3012.881
609.269	2978.915
609.397	3007.314
609.525	3019.517
609.653	3033.297
609.781	3003.475
609.910	3023.331
610.038	3109.127
610.166	3026.780
610.294	3011.373
610.422	3010.873
610.550	3001.508
610.678	3009.458
610.806	3017.331
610.935	2989.246
611.063	2996.636
611.191	3030.636
611.319	3019.415
611.447	3019.678
611.575	3020.356
611.703	3010.288
611.831	3020.000
611.960	3003.542
612.088	2997.856
612.216	3007.178
612.344	3035.703
612.472	3030.415
612.600	3024.441
612.728	3027.424
612.856	2982.864
612.985	3004.364
613.113	3038.059
613.241	3042.212
613.369	3032.661
613.497	3009.890
613.625	3037.576
613.753	3009.042
613.881	3042.780
614.010	2999.907
614.138	3048.475
614.266	3027.356
614.394	3062.136
614.522	3052.627
614.650	3035.576
614.778	3045.390
614.906	3046.102
615.035	3044.881
615.163	3028.678
615.291	3089.932
615.419	3028.364
615.547	3036.203
615.675	3041.958
615.803	3075.771
615.931	3056.517
616.060	3032.119
616.188	3078.407
616.316	3079.449
616.444	3041.424
616.572	3089.297
616.700	3108.712
616.828	3083.441
616.956	3097.932
617.085	3076.398
617.213	3087.864
617.341	3103.559
617.469	3167.458
617.597	3108.424
617.725	3098.102
617.853	3103.449
617.981	3111.407
618.110	3157.153
618.238	3160.237
618.366	3102.229
618.494	3106.305
618.622	3130.669
618.750	3177.144
618.878	3166.975
619.006	3160.076
619.135	3192.025
619.263	3145.381
619.391	3162.008
619.519	3169.568
619.647	3217.678
619.775	3190.525
619.903	3197.559
620.031	3189.873
620.160	3182.288
620.288	3210.703
620.416	3210.763
620.544	3240.203
620.672	3212.559
620.800	3226.280
620.928	3218.585
621.056	3273.924
621.185	3239.992
621.313	3208.025
621.441	3239.017
621.569	3244.059
621.697	3237.492
621.825	3257.059
621.953	3211.568
622.081	3269.305
622.210	3233.559
622.338	3259.042
622.466	3277.288
622.594	3287.475
622.722	3258.983
622.850	3290.373
622.978	3319.034
623.106	3321.975
623.235	3296.280
623.363	3306.203
623.491	3283.695
623.619	3309.373
623.747	3282.669
623.875	3341.492
624.003	3286.271
624.131	3306.839
624.260	3340.483
624.388	3281.737
624.516	3313.932
624.644	3296.992
624.772	3293.169
624.900	3283.746
625.028	3294.788
625.156	3281.559
625.285	3319.398
625.413	3313.864
625.541	3305.314
625.669	3314.246
625.797	3318.644
625.925	3306.076
626.053	3297.059
626.181	3285.458
626.310	3384.729
626.438	3300.831
626.566	3314.441
626.694	3278.034
626.822	3298.653
626.950	3320.966
627.078	3278.093
627.206	3305.585
627.335	3297.856
627.463	3290.119
627.591	3318.508
627.719	3349.220
627.847	3322.958
627.975	3304.814
628.103	3329.102
628.231	3307.102
628.360	3286.153
628.488	3274.390
628.616	3288.424
628.744	3300.297
628.872	3319.458
629.000	3311.542
629.128	3302.415
629.256	3264.246
629.385	3305.432
629.513	3287.797
629.641	3304.144
629.769	3322.212
629.897	3318.085
630.025	3275.492
630.153	3353.602
630.281	3302.119
630.410	3294.525
630.538	3281.890
630.666	3305.763
630.794	3265.695
630.922	3314.653
631.050	3279.246
631.178	3308.407
631.306	3290.627
631.435	3287.788
631.563	3275.390
631.691	3339.025
631.819	3364.034
631.947	3252.347
632.075	3253.246
632.203	3319.678
632.331	3273.500
632.460	3279.585
632.588	3275.025
632.716	3265.525
632.844	3326.314
632.972	3225.297
633.100	3233.898
633.228	3270.602
633.356	3271.144
633.485	3270.339
633.613	3253.051
633.741	3267.119
633.869	3241.542
633.997	3242.356
634.125	3290.525
634.253	3249.390
634.381	3243.034
634.510	3258.492
634.638	3271.458
634.766	3315.339
634.894	3243.034
635.022	3223.220
635.150	3218.051
635.278	3251.915
635.406	3212.441
635.535	3237.915
635.663	3238.831
635.791	3169.398
635.919	3198.864
636.047	3208.610
636.175	3199.169
636.303	3202.381
636.431	3214.814
636.560	3223.331
636.688	3185.975
636.816	3204.602
636.944	3155.458
637.072	3205.771
637.200	3189.737
637.328	3191.686
637.456	3175.449
637.585	3172.042
637.713	3210.780
637.841	3182.085
637.969	3179.051
638.097	3167.525
638.225	3174.093
638.353	3163.898
638.481	3151.856
638.610	3173.805
638.738	3156.915
638.866	3155.042
638.994	3162.466
639.122	3150.949
639.250	3129.890
639.378	3187.271
639.506	3169.534
639.635	3174.949
639.763	3132.551
639.891	3159.568
640.019	3163.407
640.147	3196.636
640.275	3139.763
640.403	3115.729
640.531	3187.932
640.660	3138.280
640.788	3206.297
640.916	3157.339
641.044	3140.992
641.172	3147.907
641.300	3151.373
641.428	3153.424
641.556	3150.534
641.685	3158.110
641.813	3138.907
641.941	3159.864
642.069	3158.771
642.197	3186.085
642.325	3162.805
642.453	3129.703
642.581	3224.178
642.710	3117.542
642.838	3160.881
642.966	3136.949
643.094	3151.924
643.222	3120.458
643.350	3148.924
643.478	3174.025
643.606	3138.746
643.735	3095.534
643.863	3142.636
643.991	3142.424
644.119	3118.186
644.247	3139.839
644.375	3114.593
644.503	3155.992
644.631	3148.924
644.760	3139.203
644.888	3148.119
645.016	3128.703
645.144	3135.585
645.272	3106.144
645.400	3151.305
645.528	3148.619
645.656	3130.280
645.785	3118.703
645.913	3174.314
646.041	3124.500
646.169	3154.458
646.297	3103.669
646.425	3133.627
646.553	3097.034
646.681	3084.432
646.810	3090.763
646.938	3067.661
647.066	3045.780
647.194	3130.381
647.322	3065.619
647.450	3071.280
647.578	3063.110
647.706	3066.347
647.835	3033.729
647.963	3097.585
648.091	3034.856
648.219	3069.839
648.347	3061.059
648.475	3019.271
648.603	3028.263
648.731	2998.229
648.860	3019.169
648.988	2988.237
649.116	2999.364
649.244	2980.025
649.372	3002.847
649.500	2981.008
649.628	3010.068
649.756	2976.975
649.885	2951.822
650.013	2942.034
650.141	2944.229
650.269	2919.424
650.397	2924.805
650.525	2884.076
650.653	2949.339
650.781	2920.737
650.910	2893.034
651.038	2868.102
651.166	2846.754
651.294	2884.542
651.422	2846.975
651.550	2816.178
651.678	2834.356
651.806	2813.805
651.935	2827.127
652.063	2814.627
652.191	2817.305
652.319	2775.856
652.447	2804.805
652.575	2774.559
652.703	2794.898
652.831	2793.585
652.960	2755.729
653.088	2777.085
653.216	2770.390
653.344	2761.220
653.472	2742.186
653.600	2737.093
653.728	2727.432
653.856	2733.246
653.985	2703.992
654.113	2694.729
654.241	2702.119
654.369	2687.619
654.497	2734.025
654.625	2701.941
654.753	2670.992
654.881	2693.119
655.010	2732.576
655.138	2660.678
655.266	2669.178
655.394	2672.186
655.522	2687.263
655.650	2620.542
655.778	2711.483
655.906	2638.237
656.035	2615.390
656.163	2619.220
656.291	2622.373
656.419	2637.263
656.547	2601.305
656.675	2613.390
