70-80-0_at_679.99nm_cut_at_1283.50Y_01.dat
24.01.2024
11:27:19
cut middle at Y: 1283.50
top cursor: 1343 down cursor: 1224 mean of: 119 lines , 2560 datapoints
wavelength(nm)	intensity[arb. units]
515.994	405.563
516.122	386.529
516.250	382.706
516.378	378.958
516.506	378.261
516.635	380.319
516.763	389.697
516.891	382.277
517.019	387.345
517.147	385.151
517.275	389.992
517.403	387.706
517.531	387.689
517.660	381.529
517.788	390.773
517.916	392.992
518.044	386.697
518.172	388.748
518.300	393.479
518.428	390.807
518.556	391.924
518.685	392.286
518.813	395.303
518.941	396.874
519.069	391.193
519.197	398.059
519.325	395.815
519.453	393.798
519.581	403.588
519.710	402.664
519.838	401.412
519.966	400.134
520.094	401.849
520.222	402.832
520.350	400.311
520.478	404.655
520.606	409.202
520.735	405.966
520.863	411.479
520.991	415.941
521.119	407.420
521.247	415.891
521.375	411.605
521.503	419.588
521.631	417.697
521.760	418.454
521.888	418.882
522.016	422.437
522.144	418.143
522.272	426.361
522.400	427.437
522.528	430.403
522.656	425.445
522.785	428.555
522.913	426.933
523.041	429.655
523.169	425.891
523.297	434.639
523.425	434.034
523.553	431.975
523.681	429.059
523.810	432.815
523.938	439.487
524.066	434.824
524.194	434.479
524.322	434.353
524.450	432.076
524.578	439.025
524.706	441.857
524.835	434.571
524.963	440.294
525.091	435.555
525.219	435.655
525.347	434.647
525.475	434.832
525.603	436.689
525.731	440.017
525.860	441.647
525.988	437.328
526.116	436.908
526.244	439.849
526.372	438.454
526.500	440.832
526.628	445.832
526.756	433.580
526.885	439.765
527.013	442.697
527.141	436.160
527.269	441.429
527.397	446.370
527.525	441.798
527.653	439.008
527.781	442.639
527.910	449.613
528.038	443.571
528.166	443.782
528.294	448.311
528.422	446.084
528.550	450.387
528.678	448.664
528.806	449.059
528.935	450.790
529.063	450.471
529.191	450.916
529.319	454.941
529.447	454.723
529.575	454.277
529.703	452.034
529.831	457.261
529.960	452.210
530.088	456.076
530.216	461.992
530.344	454.387
530.472	458.882
530.600	460.387
530.728	459.773
530.856	459.739
530.985	459.118
531.113	460.437
531.241	465.773
531.369	467.160
531.497	457.244
531.625	463.160
531.753	465.992
531.881	464.126
532.010	468.277
532.138	461.328
532.266	463.336
532.394	457.815
532.522	467.681
532.650	461.235
532.778	470.017
532.906	464.361
533.035	459.807
533.163	464.538
533.291	460.017
533.419	454.748
533.547	466.950
533.675	463.622
533.803	462.193
533.931	455.950
534.060	463.513
534.188	467.261
534.316	465.605
534.444	462.118
534.572	464.168
534.700	464.496
534.828	469.168
534.956	466.084
535.085	464.445
535.213	468.000
535.341	470.975
535.469	475.538
535.597	473.479
535.725	476.420
535.853	476.437
535.981	468.319
536.110	480.639
536.238	481.866
536.366	481.689
536.494	476.462
536.622	486.437
536.750	482.916
536.878	482.101
537.006	486.487
537.135	490.050
537.263	487.286
537.391	492.899
537.519	496.008
537.647	490.244
537.775	493.227
537.903	490.857
538.031	498.378
538.160	494.916
538.288	494.714
538.416	500.185
538.544	499.244
538.672	499.328
538.800	501.866
538.928	500.261
539.056	502.782
539.185	508.471
539.313	500.882
539.441	508.454
539.569	509.353
539.697	507.513
539.825	511.773
539.953	511.655
540.081	499.244
540.210	516.429
540.338	510.655
540.466	520.000
540.594	512.706
540.722	510.647
540.850	508.353
540.978	515.504
541.106	515.891
541.235	517.328
541.363	508.504
541.491	512.706
541.619	514.420
541.747	511.109
541.875	515.655
542.003	513.126
542.131	515.782
542.260	516.479
542.388	515.353
542.516	522.622
542.644	518.042
542.772	519.571
542.900	519.437
543.028	525.319
543.156	521.899
543.285	522.092
543.413	522.966
543.541	520.580
543.669	529.647
543.797	529.109
543.925	525.378
544.053	529.992
544.181	529.050
544.310	528.185
544.438	524.168
544.566	525.328
544.694	530.765
544.822	529.504
544.950	527.546
545.078	527.950
545.206	526.420
545.335	527.504
545.463	529.361
545.591	524.412
545.719	526.067
545.847	527.933
545.975	530.655
546.103	530.521
546.231	527.101
546.360	532.899
546.488	533.807
546.616	538.286
546.744	536.891
546.872	532.790
547.000	530.950
547.128	533.412
547.256	534.933
547.385	532.731
547.513	529.958
547.641	532.681
547.769	534.832
547.897	532.933
548.025	530.462
548.153	533.210
548.281	533.168
548.410	540.739
548.538	534.101
548.666	539.050
548.794	532.765
548.922	531.983
549.050	533.807
549.178	541.361
549.306	540.647
549.435	539.210
549.563	541.067
549.691	539.361
549.819	544.857
549.947	544.008
550.075	541.429
550.203	538.622
550.331	539.420
550.460	543.571
550.588	541.891
550.716	551.218
550.844	543.950
550.972	546.345
551.100	550.462
551.228	538.639
551.356	541.773
551.485	549.815
551.613	544.193
551.741	544.202
551.869	546.412
551.997	540.706
552.125	544.706
552.253	541.756
552.381	537.345
552.510	540.303
552.638	540.025
552.766	546.252
552.894	537.210
553.022	540.034
553.150	541.311
553.278	540.092
553.406	542.101
553.535	531.042
553.663	538.109
553.791	537.798
553.919	544.706
554.047	538.336
554.175	542.151
554.303	537.210
554.431	540.412
554.560	546.874
554.688	547.479
554.816	536.697
554.944	540.479
555.072	543.252
555.200	542.563
555.328	546.597
555.456	546.958
555.585	547.176
555.713	539.655
555.841	547.311
555.969	544.966
556.097	544.277
556.225	550.790
556.353	545.420
556.481	543.277
556.610	549.521
556.738	554.210
556.866	548.824
556.994	548.924
557.122	547.840
557.250	550.412
557.378	550.580
557.506	549.336
557.635	548.420
557.763	551.227
557.891	553.613
558.019	551.874
558.147	556.084
558.275	553.210
558.403	563.471
558.531	559.723
558.660	551.756
558.788	560.118
558.916	558.689
559.044	551.798
559.172	559.866
559.300	566.924
559.428	563.765
559.556	567.134
559.685	562.815
559.813	565.420
559.941	559.496
560.069	564.462
560.197	564.588
560.325	564.824
560.453	556.899
560.581	565.176
560.710	566.445
560.838	560.950
560.966	569.269
561.094	567.639
561.222	569.630
561.350	569.580
561.478	562.345
561.606	567.672
561.735	563.983
561.863	558.983
561.991	566.966
562.119	564.756
562.247	564.017
562.375	564.504
562.503	561.521
562.631	569.874
562.760	561.664
562.888	573.891
563.016	567.529
563.144	565.311
563.272	562.924
563.400	561.849
563.528	561.807
563.656	566.563
563.785	571.008
563.913	570.118
564.041	568.924
564.169	565.412
564.297	572.000
564.425	565.286
564.553	571.580
564.681	575.597
564.810	572.076
564.938	575.185
565.066	567.773
565.194	577.403
565.322	574.580
565.450	577.101
565.578	581.050
565.706	577.328
565.835	583.017
565.963	578.336
566.091	580.017
566.219	580.950
566.347	586.966
566.475	594.168
566.603	585.933
566.731	588.538
566.860	585.387
566.988	590.672
567.116	593.563
567.244	594.714
567.372	596.815
567.500	600.084
567.628	597.824
567.756	598.134
567.885	602.966
568.013	604.782
568.141	598.571
568.269	604.311
568.397	606.950
568.525	604.471
568.653	613.227
568.781	613.529
568.910	621.958
569.038	611.336
569.166	609.866
569.294	619.294
569.422	614.832
569.550	612.227
569.678	617.176
569.806	621.714
569.935	622.630
570.063	622.924
570.191	623.613
570.319	624.731
570.447	624.445
570.575	631.916
570.703	631.479
570.831	630.824
570.960	628.412
571.088	636.950
571.216	629.613
571.344	633.471
571.472	637.983
571.600	639.899
571.728	637.765
571.856	644.185
571.985	641.143
572.113	640.891
572.241	645.034
572.369	651.924
572.497	641.765
572.625	651.630
572.753	643.353
572.881	650.269
573.010	652.782
573.138	650.529
573.266	657.176
573.394	650.336
573.522	657.874
573.650	660.681
573.778	657.017
573.906	658.588
574.035	657.866
574.163	656.403
574.291	659.025
574.419	657.345
574.547	667.689
574.675	667.160
574.803	666.555
574.931	665.866
575.060	671.739
575.188	671.748
575.316	667.261
575.444	671.874
575.572	674.555
575.700	673.748
575.828	675.790
575.956	676.731
576.085	676.143
576.213	685.664
576.341	677.807
576.469	681.420
576.597	681.176
576.725	679.832
576.853	675.782
576.981	680.714
577.110	678.773
577.238	688.975
577.366	681.924
577.494	676.916
577.622	686.891
577.750	683.924
577.878	678.294
578.006	688.244
578.135	688.336
578.263	691.924
578.391	699.924
578.519	700.731
578.647	693.126
578.775	689.319
578.903	691.437
579.031	700.437
579.160	697.916
579.288	696.697
579.416	692.647
579.544	694.639
579.672	702.739
579.800	701.899
579.928	699.790
580.056	698.697
580.185	710.630
580.313	703.916
580.441	704.975
580.569	708.294
580.697	707.782
580.825	710.639
580.953	722.168
581.081	720.933
581.210	719.597
581.338	726.706
581.466	724.134
581.594	735.420
581.722	719.252
581.850	728.891
581.978	729.227
582.106	731.647
582.235	732.529
582.363	733.353
582.491	736.798
582.619	735.286
582.747	745.109
582.875	744.277
583.003	744.739
583.131	748.361
583.260	756.941
583.388	758.042
583.516	760.874
583.644	761.462
583.772	766.160
583.900	775.605
584.028	772.538
584.156	776.546
584.285	775.143
584.413	775.277
584.541	785.185
584.669	785.361
584.797	781.034
584.925	795.975
585.053	793.555
585.181	790.361
585.310	796.067
585.438	799.647
585.566	795.454
585.694	808.151
585.822	809.328
585.950	801.866
586.078	814.798
586.206	821.143
586.335	816.042
586.463	821.504
586.591	827.412
586.719	825.101
586.847	828.345
586.975	826.303
587.103	830.807
587.231	829.134
587.360	842.840
587.488	834.210
587.616	842.471
587.744	844.866
587.872	844.479
588.000	841.756
588.128	856.345
588.256	852.731
588.385	841.378
588.513	853.664
588.641	851.143
588.769	863.303
588.897	856.244
589.025	851.151
589.153	862.908
589.281	860.202
589.410	857.235
589.538	868.748
589.666	868.849
589.794	868.580
589.922	875.395
590.050	881.454
590.178	869.462
590.306	873.261
590.435	879.454
590.563	871.067
590.691	873.210
590.819	872.529
590.947	887.555
591.075	879.966
591.203	877.050
591.331	890.622
591.460	887.849
591.588	880.681
591.716	892.807
591.844	890.000
591.972	899.345
592.100	898.613
592.228	892.983
592.356	905.613
592.485	902.882
592.613	903.933
592.741	908.084
592.869	912.008
592.997	913.487
593.125	919.588
593.253	914.815
593.381	920.950
593.510	917.008
593.638	915.630
593.766	919.252
593.894	929.916
594.022	924.782
594.150	925.311
594.278	936.084
594.406	936.731
594.535	932.504
594.663	940.479
594.791	942.521
594.919	942.403
595.047	948.941
595.175	958.445
595.303	951.597
595.431	956.059
595.560	966.412
595.688	967.706
595.816	953.992
595.944	965.992
596.072	977.471
596.200	967.261
596.328	967.118
596.456	977.471
596.585	978.277
596.713	989.933
596.841	986.269
596.969	984.017
597.097	994.471
597.225	995.773
597.353	994.756
597.481	991.613
597.610	1006.580
597.738	1002.353
597.866	996.311
597.994	1009.412
598.122	1020.025
598.250	1013.832
598.378	1007.891
598.506	1014.521
598.635	1009.966
598.763	1026.126
598.891	1023.849
599.019	1027.689
599.147	1023.168
599.275	1029.429
599.403	1022.261
599.531	1036.790
599.660	1037.294
599.788	1044.681
599.916	1044.445
600.044	1046.950
600.172	1047.378
600.300	1057.765
600.428	1046.891
600.556	1059.059
600.685	1054.739
600.813	1058.580
600.941	1080.571
601.069	1076.975
601.197	1086.639
601.325	1073.546
601.453	1074.336
601.581	1087.765
601.710	1086.807
601.838	1084.521
601.966	1086.109
602.094	1095.874
602.222	1104.017
602.350	1099.118
602.478	1103.193
602.606	1107.462
602.735	1113.076
602.863	1123.714
602.991	1127.370
603.119	1128.336
603.247	1129.067
603.375	1125.328
603.503	1133.160
603.631	1141.345
603.760	1140.462
603.888	1146.387
604.016	1150.689
604.144	1150.445
604.272	1156.613
604.400	1158.420
604.528	1153.235
604.656	1167.832
604.785	1164.445
604.913	1169.345
605.041	1179.529
605.169	1175.521
605.297	1178.882
605.425	1185.504
605.553	1181.815
605.681	1184.210
605.810	1190.353
605.938	1190.471
606.066	1183.261
606.194	1197.697
606.322	1200.471
606.450	1206.412
606.578	1213.966
606.706	1208.202
606.835	1213.697
606.963	1214.739
607.091	1216.790
607.219	1227.017
607.347	1215.403
607.475	1228.555
607.603	1227.261
607.731	1235.773
607.860	1219.891
607.988	1228.790
608.116	1243.109
608.244	1232.697
608.372	1231.840
608.500	1240.277
608.628	1240.529
608.756	1242.210
608.885	1237.471
609.013	1248.395
609.141	1250.630
609.269	1242.689
609.397	1238.496
609.525	1239.529
609.653	1248.597
609.781	1253.597
609.910	1252.286
610.038	1252.235
610.166	1256.966
610.294	1242.084
610.422	1261.966
610.550	1267.378
610.678	1254.723
610.806	1258.681
610.935	1255.176
611.063	1262.445
611.191	1270.286
611.319	1262.571
611.447	1258.933
611.575	1261.244
611.703	1255.126
611.831	1266.244
611.960	1272.622
612.088	1273.513
612.216	1280.790
612.344	1284.866
612.472	1273.782
612.600	1286.807
612.728	1271.050
612.856	1277.916
612.985	1274.672
613.113	1277.244
613.241	1296.387
613.369	1283.639
613.497	1302.555
613.625	1282.882
613.753	1291.387
613.881	1294.311
614.010	1294.168
614.138	1296.655
614.266	1284.109
614.394	1286.824
614.522	1284.008
614.650	1297.454
614.778	1291.639
614.906	1311.076
615.035	1300.706
615.163	1298.857
615.291	1306.319
615.419	1318.218
615.547	1298.824
615.675	1323.504
615.803	1309.521
615.931	1322.303
616.060	1327.042
616.188	1328.412
616.316	1318.513
616.444	1315.748
616.572	1325.143
616.700	1331.571
616.828	1347.538
616.956	1343.571
617.085	1349.042
617.213	1349.580
617.341	1323.269
617.469	1336.622
617.597	1342.025
617.725	1343.916
617.853	1342.244
617.981	1350.479
618.110	1363.672
618.238	1354.731
618.366	1368.202
618.494	1369.807
618.622	1369.076
618.750	1363.361
618.878	1374.664
619.006	1370.689
619.135	1384.613
619.263	1384.681
619.391	1377.252
619.519	1386.479
619.647	1398.723
619.775	1392.160
619.903	1394.445
620.031	1404.008
620.160	1395.714
620.288	1404.185
620.416	1417.840
620.544	1408.739
620.672	1412.891
620.800	1413.109
620.928	1428.639
621.056	1427.101
621.185	1418.681
621.313	1417.924
621.441	1429.975
621.569	1442.580
621.697	1431.521
621.825	1444.387
621.953	1436.613
622.081	1455.832
622.210	1438.227
622.338	1452.563
622.466	1440.269
622.594	1470.126
622.722	1460.244
622.850	1466.487
622.978	1461.235
623.106	1467.008
623.235	1477.496
623.363	1472.370
623.491	1470.134
623.619	1465.857
623.747	1459.882
623.875	1477.899
624.003	1473.496
624.131	1472.118
624.260	1458.395
624.388	1481.261
624.516	1491.933
624.644	1468.689
624.772	1479.286
624.900	1485.168
625.028	1480.899
625.156	1499.235
625.285	1482.857
625.413	1483.168
625.541	1488.076
625.669	1489.597
625.797	1490.277
625.925	1488.361
626.053	1499.025
626.181	1492.605
626.310	1488.202
626.438	1477.076
626.566	1484.807
626.694	1480.303
626.822	1483.807
626.950	1492.983
627.078	1494.109
627.206	1483.050
627.335	1507.521
627.463	1484.874
627.591	1503.739
627.719	1496.437
627.847	1489.622
627.975	1494.840
628.103	1484.756
628.231	1511.303
628.360	1499.059
628.488	1502.950
628.616	1501.756
628.744	1486.697
628.872	1493.681
629.000	1502.261
629.128	1508.555
629.256	1514.513
629.385	1505.042
629.513	1490.034
629.641	1507.353
629.769	1495.017
629.897	1496.437
630.025	1501.563
630.153	1512.227
630.281	1513.655
630.410	1502.319
630.538	1511.126
630.666	1502.176
630.794	1508.765
630.922	1496.387
631.050	1498.034
631.178	1503.807
631.306	1498.538
631.435	1508.697
631.563	1503.134
631.691	1485.899
631.819	1503.933
631.947	1507.790
632.075	1501.840
632.203	1512.479
632.331	1509.151
632.460	1487.235
632.588	1500.336
632.716	1500.891
632.844	1493.908
632.972	1500.723
633.100	1500.008
633.228	1508.908
633.356	1494.471
633.485	1495.899
633.613	1507.630
633.741	1493.328
633.869	1494.193
633.997	1490.622
634.125	1492.059
634.253	1481.261
634.381	1497.832
634.510	1495.336
634.638	1468.966
634.766	1486.908
634.894	1484.563
635.022	1471.941
635.150	1476.286
635.278	1501.025
635.406	1481.773
635.535	1487.588
635.663	1494.008
635.791	1473.176
635.919	1490.202
636.047	1478.975
636.175	1471.437
636.303	1477.252
636.431	1491.353
636.560	1477.034
636.688	1474.008
636.816	1465.815
636.944	1466.429
637.072	1475.454
637.200	1461.899
637.328	1461.723
637.456	1480.336
637.585	1464.681
637.713	1469.689
637.841	1457.950
637.969	1464.756
638.097	1458.756
638.225	1468.008
638.353	1476.361
638.481	1465.798
638.610	1466.773
638.738	1451.202
638.866	1452.765
638.994	1467.790
639.122	1457.958
639.250	1457.395
639.378	1462.067
639.506	1442.504
639.635	1455.412
639.763	1444.412
639.891	1464.420
640.019	1458.874
640.147	1449.739
640.275	1443.294
640.403	1449.899
640.531	1451.588
640.660	1446.622
640.788	1454.723
640.916	1444.143
641.044	1458.529
641.172	1445.681
641.300	1456.311
641.428	1452.773
641.556	1467.042
641.685	1442.891
641.813	1438.975
641.941	1448.924
642.069	1445.891
642.197	1451.445
642.325	1440.597
642.453	1444.824
642.581	1454.882
642.710	1442.857
642.838	1443.118
642.966	1443.571
643.094	1430.924
643.222	1435.958
643.350	1437.294
643.478	1443.630
643.606	1455.824
643.735	1443.076
643.863	1431.445
643.991	1441.899
644.119	1432.479
644.247	1443.252
644.375	1441.252
644.503	1440.672
644.631	1449.395
644.760	1442.378
644.888	1445.975
645.016	1442.160
645.144	1450.992
645.272	1432.185
645.400	1437.941
645.528	1427.908
645.656	1428.992
645.785	1433.336
645.913	1423.504
646.041	1437.412
646.169	1409.588
646.297	1414.529
646.425	1423.714
646.553	1412.647
646.681	1419.731
646.810	1398.134
646.938	1421.303
647.066	1406.008
647.194	1410.193
647.322	1404.437
647.450	1394.697
647.578	1412.857
647.706	1402.924
647.835	1400.008
647.963	1389.664
648.091	1392.429
648.219	1391.487
648.347	1390.353
648.475	1382.244
648.603	1386.958
648.731	1381.420
648.860	1374.143
648.988	1373.513
649.116	1373.244
649.244	1360.773
649.372	1352.361
649.500	1356.966
649.628	1355.387
649.756	1350.454
649.885	1345.605
650.013	1337.571
650.141	1333.008
650.269	1328.798
650.397	1328.370
650.525	1332.504
650.653	1329.084
650.781	1327.454
650.910	1317.101
651.038	1308.370
651.166	1309.420
651.294	1303.613
651.422	1299.773
651.550	1292.185
651.678	1284.403
651.806	1285.773
651.935	1289.739
652.063	1275.412
652.191	1267.084
652.319	1274.294
652.447	1263.252
652.575	1258.916
652.703	1254.025
652.831	1249.916
652.960	1242.513
653.088	1241.092
653.216	1232.731
653.344	1235.874
653.472	1237.202
653.600	1231.008
653.728	1223.866
653.856	1219.664
653.985	1228.008
654.113	1219.303
654.241	1221.739
654.369	1214.303
654.497	1221.143
654.625	1209.882
654.753	1213.807
654.881	1212.143
655.010	1206.454
655.138	1200.042
655.266	1189.143
655.394	1179.420
655.522	1186.328
655.650	1180.672
655.778	1187.563
655.906	1175.008
656.035	1173.244
656.163	1181.765
656.291	1168.529
656.419	1168.798
656.547	1172.479
656.675	1153.857
656.803	1159.160
656.931	1145.227
657.060	1154.613
657.188	1148.050
657.316	1147.513
657.444	1148.168
657.572	1136.311
657.700	1133.723
657.828	1137.639
657.956	1133.345
658.085	1144.252
658.213	1122.345
658.341	1122.790
658.469	1122.782
658.597	1123.866
658.725	1122.563
658.853	1107.580
658.981	1106.782
659.110	1107.916
659.238	1107.193
659.366	1104.891
659.494	1099.630
659.622	1096.429
659.750	1095.437
659.878	1091.092
660.006	1089.891
660.135	1087.277
660.263	1078.277
660.391	1075.311
660.519	1072.235
660.647	1071.891
660.775	1067.429
660.903	1069.076
661.031	1063.933
661.160	1067.790
661.288	1060.521
