70-80-90_at_679.99nm_cut_at_1283.50Y_01.dat
24.01.2024
11:27:47
cut middle at Y: 1283.50
top cursor: 1343 down cursor: 1224 mean of: 119 lines , 2560 datapoints
wavelength(nm)	intensity[arb. units]
515.994	465.218
516.122	435.185
516.250	430.655
516.378	429.891
516.506	431.487
516.635	435.479
516.763	433.748
516.891	434.874
517.019	436.908
517.147	432.277
517.275	436.815
517.403	438.143
517.531	434.739
517.660	428.983
517.788	432.580
517.916	434.714
518.044	436.000
518.172	435.269
518.300	432.975
518.428	440.025
518.556	435.504
518.685	435.748
518.813	437.840
518.941	440.655
519.069	439.580
519.197	437.109
519.325	442.563
519.453	440.101
519.581	442.647
519.710	441.252
519.838	446.655
519.966	446.924
520.094	441.672
520.222	445.403
520.350	447.706
520.478	446.630
520.606	452.059
520.735	449.798
520.863	452.445
520.991	454.555
521.119	455.277
521.247	456.109
521.375	455.176
521.503	460.613
521.631	456.630
521.760	459.445
521.888	459.445
522.016	465.261
522.144	466.202
522.272	464.487
522.400	465.798
522.528	471.008
522.656	463.866
522.785	465.790
522.913	468.261
523.041	467.681
523.169	463.496
523.297	463.916
523.425	470.739
523.553	476.151
523.681	468.513
523.810	474.916
523.938	474.697
524.066	472.143
524.194	474.681
524.322	469.319
524.450	470.235
524.578	466.580
524.706	475.160
524.835	474.202
524.963	473.622
525.091	469.689
525.219	476.202
525.347	470.353
525.475	470.622
525.603	474.782
525.731	474.798
525.860	471.261
525.988	469.151
526.116	468.891
526.244	475.807
526.372	469.387
526.500	479.445
526.628	482.059
526.756	472.555
526.885	478.151
527.013	474.739
527.141	476.748
527.269	479.336
527.397	477.387
527.525	474.252
527.653	475.933
527.781	475.008
527.910	479.832
528.038	481.765
528.166	480.336
528.294	480.538
528.422	478.882
528.550	479.445
528.678	481.866
528.806	483.966
528.935	487.185
529.063	487.412
529.191	487.025
529.319	487.218
529.447	487.605
529.575	491.193
529.703	493.420
529.831	493.571
529.960	485.269
530.088	488.790
530.216	496.412
530.344	492.983
530.472	494.378
530.600	500.319
530.728	500.773
530.856	496.109
530.985	496.244
531.113	495.361
531.241	502.731
531.369	500.538
531.497	501.176
531.625	497.017
531.753	499.655
531.881	504.008
532.010	505.092
532.138	500.261
532.266	494.941
532.394	506.370
532.522	497.647
532.650	502.454
532.778	503.933
532.906	501.487
533.035	501.639
533.163	502.370
533.291	498.193
533.419	496.739
533.547	501.429
533.675	503.882
533.803	496.126
533.931	503.866
534.060	501.807
534.188	504.899
534.316	510.025
534.444	499.538
534.572	501.429
534.700	501.630
534.828	495.118
534.956	507.067
535.085	507.529
535.213	503.899
535.341	505.563
535.469	507.050
535.597	507.815
535.725	509.017
535.853	507.765
535.981	504.479
536.110	514.908
536.238	511.866
536.366	520.815
536.494	509.597
536.622	519.723
536.750	515.328
536.878	517.084
537.006	518.731
537.135	516.479
537.263	516.252
537.391	519.193
537.519	521.378
537.647	525.672
537.775	526.429
537.903	522.252
538.031	525.958
538.160	531.748
538.288	525.504
538.416	525.714
538.544	530.370
538.672	530.672
538.800	527.840
538.928	532.765
539.056	528.294
539.185	539.487
539.313	534.235
539.441	537.050
539.569	535.706
539.697	534.504
539.825	534.899
539.953	539.109
540.081	530.588
540.210	534.403
540.338	536.126
540.466	541.580
540.594	539.387
540.722	529.563
540.850	536.975
540.978	534.084
541.106	543.555
541.235	541.807
541.363	535.983
541.491	536.571
541.619	532.311
541.747	538.882
541.875	538.487
542.003	532.008
542.131	542.151
542.260	541.218
542.388	535.908
542.516	543.706
542.644	539.874
542.772	541.059
542.900	540.546
543.028	537.303
543.156	544.857
543.285	544.916
543.413	540.202
543.541	545.185
543.669	541.235
543.797	546.202
543.925	547.891
544.053	544.227
544.181	548.059
544.310	540.034
544.438	543.109
544.566	547.050
544.694	546.824
544.822	545.933
544.950	548.950
545.078	550.563
545.206	551.160
545.335	551.076
545.463	548.319
545.591	556.689
545.719	557.840
545.847	543.605
545.975	553.866
546.103	552.748
546.231	552.092
546.360	554.807
546.488	559.697
546.616	556.235
546.744	562.555
546.872	559.412
547.000	558.983
547.128	563.092
547.256	556.916
547.385	558.975
547.513	557.832
547.641	559.950
547.769	560.529
547.897	564.521
548.025	564.958
548.153	562.336
548.281	561.899
548.410	565.571
548.538	562.882
548.666	569.109
548.794	561.908
548.922	562.454
549.050	568.336
549.178	564.630
549.306	573.059
549.435	569.059
549.563	563.210
549.691	562.563
549.819	576.748
549.947	573.218
550.075	571.496
550.203	568.101
550.331	569.008
550.460	575.471
550.588	568.933
550.716	573.840
550.844	565.882
550.972	563.378
551.100	567.084
551.228	571.202
551.356	560.723
551.485	567.782
551.613	565.950
551.741	559.782
551.869	556.420
551.997	558.790
552.125	556.849
552.253	564.630
552.381	561.950
552.510	561.218
552.638	555.345
552.766	564.387
552.894	555.824
553.022	560.983
553.150	556.034
553.278	554.244
553.406	557.731
553.535	553.496
553.663	553.076
553.791	550.849
553.919	556.185
554.047	557.992
554.175	553.454
554.303	553.151
554.431	550.899
554.560	554.807
554.688	561.286
554.816	558.017
554.944	554.924
555.072	556.277
555.200	558.571
555.328	553.454
555.456	562.017
555.585	562.891
555.713	561.445
555.841	565.101
555.969	559.496
556.097	564.513
556.225	562.067
556.353	568.050
556.481	560.933
556.610	576.908
556.738	565.008
556.866	570.832
556.994	567.109
557.122	565.303
557.250	571.966
557.378	577.244
557.506	573.000
557.635	574.840
557.763	567.588
557.891	581.782
558.019	576.529
558.147	577.681
558.275	572.387
558.403	580.983
558.531	580.437
558.660	576.151
558.788	577.000
558.916	581.504
559.044	574.739
559.172	583.521
559.300	585.235
559.428	583.882
559.556	591.807
559.685	587.084
559.813	583.235
559.941	591.588
560.069	587.950
560.197	592.933
560.325	592.992
560.453	587.176
560.581	588.134
560.710	591.336
560.838	592.798
560.966	592.689
561.094	592.924
561.222	594.639
561.350	588.563
561.478	587.092
561.606	588.748
561.735	584.487
561.863	586.445
561.991	592.647
562.119	591.714
562.247	592.555
562.375	592.235
562.503	589.429
562.631	587.672
562.760	588.571
562.888	592.294
563.016	589.941
563.144	584.546
563.272	587.134
563.400	583.824
563.528	586.311
563.656	588.269
563.785	583.966
563.913	589.235
564.041	578.277
564.169	588.008
564.297	588.025
564.425	580.076
564.553	584.311
564.681	587.126
564.810	584.529
564.938	590.798
565.066	583.303
565.194	593.403
565.322	591.101
565.450	587.176
565.578	592.445
565.706	587.487
565.835	594.689
565.963	593.504
566.091	592.319
566.219	595.529
566.347	593.109
566.475	592.681
566.603	600.597
566.731	598.277
566.860	595.815
566.988	591.681
567.116	600.807
567.244	603.042
567.372	602.294
567.500	603.815
567.628	604.773
567.756	607.193
567.885	611.529
568.013	607.092
568.141	614.218
568.269	606.479
568.397	606.387
568.525	611.639
568.653	611.109
568.781	614.286
568.910	623.387
569.038	616.319
569.166	620.160
569.294	617.235
569.422	623.479
569.550	620.857
569.678	620.924
569.806	628.059
569.935	636.109
570.063	627.622
570.191	639.050
570.319	633.504
570.447	634.017
570.575	629.756
570.703	636.244
570.831	638.521
570.960	639.429
571.088	642.345
571.216	641.487
571.344	640.042
571.472	643.950
571.600	644.538
571.728	648.034
571.856	645.689
571.985	646.403
572.113	648.176
572.241	644.840
572.369	655.361
572.497	655.630
572.625	655.126
572.753	654.420
572.881	657.059
573.010	660.151
573.138	660.067
573.266	656.261
573.394	659.723
573.522	661.017
573.650	659.697
573.778	661.261
573.906	662.101
574.035	654.983
574.163	664.412
574.291	657.958
574.419	659.050
574.547	672.908
574.675	672.042
574.803	664.672
574.931	666.336
575.060	670.000
575.188	659.714
575.316	665.185
575.444	668.613
575.572	672.790
575.700	659.160
575.828	671.689
575.956	674.387
576.085	666.227
576.213	666.782
576.341	661.613
576.469	668.773
576.597	665.429
576.725	662.227
576.853	671.025
576.981	666.210
577.110	663.202
577.238	675.269
577.366	668.563
577.494	667.286
577.622	665.958
577.750	664.252
577.878	664.496
578.006	674.655
578.135	669.899
578.263	667.597
578.391	677.311
578.519	668.328
578.647	673.445
578.775	670.471
578.903	665.370
579.031	673.101
579.160	674.689
579.288	668.672
579.416	664.765
579.544	669.689
579.672	668.580
579.800	677.311
579.928	669.807
580.056	667.269
580.185	666.874
580.313	670.143
580.441	674.479
580.569	671.042
580.697	668.840
580.825	677.588
580.953	678.261
581.081	683.092
581.210	690.706
581.338	683.681
581.466	682.924
581.594	683.765
581.722	681.966
581.850	684.857
581.978	683.546
582.106	683.756
582.235	691.370
582.363	683.126
582.491	701.050
582.619	690.908
582.747	696.134
582.875	695.403
583.003	702.378
583.131	700.714
583.260	702.034
583.388	703.807
583.516	704.504
583.644	706.672
583.772	710.336
583.900	711.824
584.028	709.479
584.156	718.059
584.285	724.731
584.413	716.092
584.541	723.563
584.669	723.286
584.797	727.361
584.925	726.563
585.053	739.412
585.181	728.084
585.310	732.765
585.438	732.655
585.566	730.345
585.694	741.101
585.822	746.336
585.950	743.849
586.078	748.521
586.206	745.303
586.335	756.706
586.463	759.076
586.591	755.378
586.719	755.857
586.847	754.496
586.975	761.790
587.103	758.815
587.231	756.950
587.360	766.983
587.488	765.630
587.616	763.874
587.744	770.933
587.872	771.261
588.000	769.992
588.128	772.891
588.256	768.420
588.385	774.210
588.513	767.370
588.641	778.429
588.769	779.050
588.897	775.571
589.025	769.235
589.153	778.639
589.281	779.731
589.410	775.950
589.538	780.160
589.666	784.403
589.794	773.782
589.922	781.748
590.050	788.076
590.178	779.588
590.306	784.193
590.435	792.899
590.563	786.269
590.691	794.092
590.819	788.731
590.947	799.555
591.075	791.462
591.203	787.866
591.331	800.908
591.460	794.429
591.588	789.782
591.716	802.252
591.844	797.403
591.972	801.311
592.100	795.739
592.228	801.471
592.356	804.008
592.485	791.571
592.613	796.941
592.741	809.151
592.869	807.630
592.997	811.706
593.125	816.000
593.253	811.244
593.381	810.118
593.510	816.958
593.638	813.261
593.766	814.050
593.894	814.597
594.022	812.655
594.150	812.563
594.278	827.353
594.406	822.529
594.535	826.185
594.663	829.311
594.791	832.487
594.919	828.336
595.047	831.639
595.175	839.605
595.303	831.891
595.431	840.765
595.560	847.387
595.688	841.378
595.816	841.345
595.944	841.319
596.072	853.681
596.200	855.824
596.328	848.017
596.456	856.790
596.585	854.134
596.713	857.857
596.841	858.479
596.969	859.664
597.097	865.933
597.225	865.563
597.353	866.387
597.481	865.739
597.610	872.202
597.738	868.689
597.866	866.941
597.994	871.303
598.122	884.277
598.250	875.403
598.378	883.193
598.506	885.134
598.635	888.487
598.763	890.370
598.891	889.479
599.019	890.689
599.147	882.866
599.275	891.966
599.403	886.336
599.531	901.521
599.660	896.899
599.788	901.529
599.916	895.454
600.044	897.025
600.172	901.151
600.300	910.983
600.428	907.714
600.556	906.454
600.685	906.950
600.813	915.328
600.941	924.445
601.069	924.975
601.197	925.866
601.325	926.622
601.453	926.731
601.581	928.731
601.710	934.176
601.838	944.378
601.966	936.933
602.094	937.462
602.222	935.218
602.350	935.916
602.478	950.109
602.606	953.185
602.735	952.462
602.863	955.580
602.991	964.076
603.119	963.529
603.247	964.832
603.375	957.160
603.503	967.697
603.631	974.445
603.760	977.655
603.888	979.143
604.016	979.798
604.144	986.328
604.272	986.000
604.400	981.403
604.528	990.571
604.656	988.597
604.785	996.924
604.913	999.655
605.041	999.353
605.169	1003.345
605.297	1006.655
605.425	1006.454
605.553	1019.378
605.681	1009.874
605.810	1009.723
605.938	1012.286
606.066	1019.210
606.194	1022.042
606.322	1016.672
606.450	1032.983
606.578	1033.655
606.706	1033.857
606.835	1028.605
606.963	1026.311
607.091	1039.815
607.219	1035.067
607.347	1026.034
607.475	1038.395
607.603	1044.437
607.731	1035.975
607.860	1033.664
607.988	1053.882
608.116	1052.235
608.244	1040.202
608.372	1037.076
608.500	1051.168
608.628	1043.807
608.756	1037.992
608.885	1047.084
609.013	1047.025
609.141	1055.580
609.269	1047.277
609.397	1052.059
609.525	1052.151
609.653	1052.227
609.781	1052.101
609.910	1050.403
610.038	1053.597
610.166	1052.059
610.294	1053.622
610.422	1063.395
610.550	1062.697
610.678	1053.471
610.806	1058.765
610.935	1056.563
611.063	1058.336
611.191	1063.966
611.319	1059.462
611.447	1056.731
611.575	1051.454
611.703	1055.891
611.831	1052.252
611.960	1054.613
612.088	1057.353
612.216	1067.849
612.344	1067.471
612.472	1060.521
612.600	1064.193
612.728	1058.882
612.856	1066.168
612.985	1062.630
613.113	1065.437
613.241	1071.168
613.369	1052.345
613.497	1072.101
613.625	1067.336
613.753	1068.807
613.881	1069.933
614.010	1075.370
614.138	1069.689
614.266	1070.252
614.394	1066.462
614.522	1079.319
614.650	1084.580
614.778	1082.639
614.906	1094.227
615.035	1080.798
615.163	1091.429
615.291	1087.992
615.419	1090.849
615.547	1081.471
615.675	1089.042
615.803	1092.563
615.931	1099.664
616.060	1104.076
616.188	1098.210
616.316	1099.958
616.444	1096.101
616.572	1101.916
616.700	1103.437
616.828	1119.252
616.956	1113.773
617.085	1111.588
617.213	1113.723
617.341	1101.857
617.469	1120.933
617.597	1117.832
617.725	1121.529
617.853	1111.235
617.981	1121.706
618.110	1132.731
618.238	1127.118
618.366	1137.244
618.494	1134.840
618.622	1137.849
618.750	1140.244
618.878	1156.739
619.006	1144.790
619.135	1148.454
619.263	1142.798
619.391	1145.849
619.519	1164.034
619.647	1168.437
619.775	1163.840
619.903	1169.252
620.031	1163.815
620.160	1168.933
620.288	1168.092
620.416	1174.748
620.544	1176.303
620.672	1180.529
620.800	1178.496
620.928	1181.454
621.056	1190.639
621.185	1184.647
621.313	1189.252
621.441	1200.487
621.569	1211.118
621.697	1195.882
621.825	1214.672
621.953	1210.748
622.081	1222.017
622.210	1206.529
622.338	1213.521
622.466	1212.790
622.594	1221.630
622.722	1227.605
622.850	1234.109
622.978	1228.462
623.106	1226.176
623.235	1236.580
623.363	1231.815
623.491	1224.613
623.619	1243.252
623.747	1237.655
623.875	1236.714
624.003	1232.571
624.131	1241.025
624.260	1229.151
624.388	1246.445
624.516	1236.126
624.644	1240.672
624.772	1239.252
624.900	1247.891
625.028	1234.588
625.156	1261.538
625.285	1256.622
625.413	1257.303
625.541	1249.513
625.669	1246.420
625.797	1258.655
625.925	1253.714
626.053	1251.857
626.181	1258.538
626.310	1261.403
626.438	1258.975
626.566	1260.445
626.694	1257.731
626.822	1262.084
626.950	1262.538
627.078	1260.067
627.206	1268.798
627.335	1272.924
627.463	1264.336
627.591	1266.084
627.719	1266.151
627.847	1267.345
627.975	1276.731
628.103	1263.143
628.231	1274.210
628.360	1275.588
628.488	1267.773
628.616	1282.950
628.744	1268.706
628.872	1266.882
629.000	1268.034
629.128	1277.689
629.256	1285.840
629.385	1276.160
629.513	1270.227
629.641	1283.580
629.769	1276.563
629.897	1275.882
630.025	1271.630
630.153	1283.815
630.281	1278.546
630.410	1269.387
630.538	1292.437
630.666	1284.378
630.794	1284.664
630.922	1274.000
631.050	1276.311
631.178	1282.034
631.306	1284.504
631.435	1279.235
631.563	1288.454
631.691	1275.588
631.819	1278.647
631.947	1290.403
632.075	1291.067
632.203	1297.580
632.331	1288.832
632.460	1287.000
632.588	1284.782
632.716	1295.588
632.844	1288.076
632.972	1290.420
633.100	1295.017
633.228	1296.529
633.356	1285.941
633.485	1281.588
633.613	1290.218
633.741	1291.008
633.869	1298.134
633.997	1293.437
634.125	1292.092
634.253	1273.697
634.381	1283.370
634.510	1288.025
634.638	1279.395
634.766	1283.697
634.894	1290.815
635.022	1282.983
635.150	1279.681
635.278	1295.168
635.406	1279.966
635.535	1289.916
635.663	1296.992
635.791	1279.429
635.919	1281.479
636.047	1282.025
636.175	1268.067
636.303	1291.336
636.431	1293.101
636.560	1288.454
636.688	1290.067
636.816	1286.790
636.944	1298.336
637.072	1295.168
637.200	1286.210
637.328	1277.328
637.456	1298.176
637.585	1285.269
637.713	1288.504
637.841	1286.034
637.969	1286.403
638.097	1286.840
638.225	1290.328
638.353	1301.521
638.481	1293.244
638.610	1296.815
638.738	1294.008
638.866	1295.891
638.994	1292.613
639.122	1297.874
639.250	1293.798
639.378	1297.664
639.506	1278.840
639.635	1298.655
639.763	1283.168
639.891	1285.941
640.019	1292.025
640.147	1294.101
640.275	1295.924
640.403	1295.899
640.531	1295.580
640.660	1289.261
640.788	1305.244
640.916	1293.286
641.044	1308.353
641.172	1293.395
641.300	1307.916
641.428	1297.185
641.556	1312.731
641.685	1294.336
641.813	1303.059
641.941	1308.983
642.069	1307.311
642.197	1309.454
642.325	1301.294
642.453	1314.454
642.581	1316.546
642.710	1299.992
642.838	1310.109
642.966	1309.118
643.094	1309.765
643.222	1309.261
643.350	1307.403
643.478	1321.202
643.606	1315.210
643.735	1311.151
643.863	1298.739
643.991	1321.588
644.119	1315.160
644.247	1313.840
644.375	1319.311
644.503	1324.529
644.631	1324.034
644.760	1324.084
644.888	1330.504
645.016	1322.378
645.144	1334.210
645.272	1325.756
645.400	1329.975
645.528	1329.714
645.656	1311.983
645.785	1323.849
645.913	1323.521
646.041	1331.958
646.169	1309.210
646.297	1307.916
646.425	1326.513
646.553	1311.513
646.681	1318.261
646.810	1321.370
646.938	1325.798
647.066	1315.126
647.194	1317.471
647.322	1315.588
647.450	1307.042
647.578	1311.739
647.706	1305.118
647.835	1315.622
647.963	1308.958
648.091	1310.437
648.219	1306.958
648.347	1311.210
648.475	1310.143
648.603	1300.336
648.731	1317.370
648.860	1299.782
648.988	1308.244
649.116	1300.521
649.244	1290.916
649.372	1291.008
649.500	1285.655
649.628	1290.294
649.756	1290.378
649.885	1278.496
650.013	1272.134
650.141	1273.252
650.269	1264.218
650.397	1286.706
650.525	1257.143
650.653	1271.664
650.781	1267.479
650.910	1261.832
651.038	1255.538
651.166	1253.765
651.294	1253.689
651.422	1256.269
651.550	1250.311
651.678	1242.664
651.806	1244.437
651.935	1233.538
652.063	1236.176
652.191	1227.437
652.319	1230.521
652.447	1230.496
652.575	1233.109
652.703	1212.966
652.831	1219.168
652.960	1215.437
653.088	1213.916
653.216	1209.765
653.344	1208.017
653.472	1210.168
653.600	1206.193
653.728	1203.193
653.856	1207.160
653.985	1204.992
654.113	1203.639
654.241	1198.496
654.369	1192.479
654.497	1209.496
654.625	1197.160
654.753	1194.185
654.881	1194.773
655.010	1197.529
655.138	1193.042
655.266	1189.824
655.394	1184.798
655.522	1185.034
655.650	1165.580
655.778	1187.563
655.906	1181.924
656.035	1179.849
656.163	1172.277
656.291	1181.126
656.419	1178.941
656.547	1184.941
656.675	1168.983
656.803	1167.126
656.931	1167.765
657.060	1170.101
657.188	1166.723
657.316	1168.134
657.444	1174.739
657.572	1171.622
657.700	1160.681
657.828	1166.950
657.956	1162.084
658.085	1174.807
658.213	1156.412
658.341	1151.471
658.469	1155.613
658.597	1160.773
658.725	1164.916
658.853	1149.655
658.981	1154.916
659.110	1156.983
659.238	1151.697
659.366	1152.807
659.494	1141.899
659.622	1149.336
659.750	1151.227
659.878	1147.050
660.006	1151.176
660.135	1143.983
660.263	1143.319
660.391	1140.866
660.519	1141.244
660.647	1136.076
660.775	1137.756
660.903	1136.714
661.031	1137.647
661.160	1138.555
661.288	1129.681
661.416	1137.874
661.544	1128.151
661.672	1128.521
