70-90-0_at_679.99nm_cut_at_1283.50Y_01.dat
24.01.2024
11:28:54
cut middle at Y: 1283.50
top cursor: 1343 down cursor: 1224 mean of: 119 lines , 2560 datapoints
wavelength(nm)	intensity[arb. units]
515.994	389.017
516.122	371.471
516.250	368.697
516.378	365.513
516.506	363.546
516.635	364.126
516.763	369.462
516.891	369.160
517.019	371.571
517.147	370.504
517.275	370.118
517.403	371.613
517.531	373.126
517.660	368.437
517.788	369.723
517.916	375.471
518.044	372.832
518.172	376.622
518.300	373.454
518.428	375.807
518.556	373.647
518.685	373.294
518.813	375.857
518.941	376.681
519.069	374.916
519.197	375.244
519.325	382.387
519.453	377.042
519.581	383.798
519.710	383.706
519.838	383.168
519.966	384.076
520.094	381.336
520.222	385.697
520.350	391.866
520.478	390.034
520.606	390.504
520.735	388.294
520.863	388.008
520.991	395.992
521.119	396.798
521.247	393.756
521.375	392.042
521.503	397.966
521.631	397.235
521.760	398.622
521.888	398.269
522.016	404.555
522.144	398.782
522.272	401.504
522.400	407.563
522.528	399.739
522.656	406.613
522.785	411.538
522.913	404.479
523.041	403.319
523.169	407.361
523.297	409.798
523.425	407.647
523.553	406.462
523.681	409.395
523.810	410.462
523.938	414.370
524.066	413.403
524.194	416.437
524.322	414.319
524.450	408.807
524.578	413.639
524.706	419.966
524.835	412.101
524.963	417.454
525.091	412.210
525.219	417.235
525.347	415.471
525.475	415.681
525.603	420.874
525.731	411.908
525.860	417.294
525.988	410.008
526.116	413.185
526.244	414.412
526.372	413.613
526.500	419.168
526.628	418.966
526.756	417.311
526.885	416.101
527.013	416.924
527.141	419.218
527.269	418.050
527.397	415.655
527.525	418.807
527.653	418.345
527.781	419.118
527.910	416.529
528.038	424.345
528.166	422.042
528.294	420.513
528.422	420.244
528.550	422.647
528.678	425.345
528.806	427.193
528.935	426.723
529.063	426.966
529.191	426.857
529.319	428.798
529.447	431.504
529.575	433.193
529.703	430.067
529.831	432.126
529.960	430.916
530.088	430.437
530.216	435.319
530.344	429.336
530.472	430.261
530.600	434.479
530.728	433.000
530.856	436.765
530.985	433.765
531.113	429.571
531.241	438.773
531.369	436.202
531.497	432.731
531.625	438.908
531.753	433.244
531.881	440.387
532.010	437.992
532.138	433.336
532.266	430.630
532.394	435.958
532.522	436.555
532.650	438.639
532.778	434.983
532.906	433.916
533.035	439.655
533.163	436.126
533.291	437.529
533.419	429.345
533.547	433.235
533.675	435.336
533.803	431.689
533.931	434.244
534.060	433.874
534.188	438.941
534.316	432.597
534.444	434.924
534.572	436.420
534.700	439.328
534.828	438.471
534.956	442.798
535.085	438.899
535.213	434.840
535.341	442.193
535.469	438.244
535.597	442.857
535.725	443.269
535.853	445.311
535.981	444.630
536.110	445.992
536.238	448.706
536.366	453.378
536.494	444.899
536.622	454.059
536.750	449.975
536.878	455.471
537.006	460.252
537.135	451.286
537.263	457.908
537.391	459.202
537.519	455.521
537.647	459.218
537.775	459.529
537.903	461.672
538.031	461.882
538.160	461.739
538.288	462.824
538.416	462.109
538.544	465.622
538.672	466.782
538.800	467.429
538.928	469.235
539.056	471.294
539.185	468.000
539.313	469.588
539.441	472.227
539.569	471.168
539.697	472.798
539.825	472.076
539.953	473.118
540.081	470.227
540.210	475.176
540.338	469.580
540.466	476.882
540.594	469.975
540.722	473.504
540.850	473.370
540.978	474.874
541.106	472.622
541.235	477.874
541.363	477.924
541.491	472.067
541.619	473.630
541.747	479.714
541.875	476.202
542.003	479.555
542.131	477.076
542.260	483.218
542.388	480.899
542.516	480.084
542.644	482.059
542.772	479.277
542.900	479.269
543.028	483.580
543.156	486.773
543.285	480.882
543.413	482.370
543.541	486.303
543.669	482.765
543.797	479.916
543.925	486.034
544.053	488.269
544.181	487.697
544.310	483.882
544.438	482.160
544.566	478.639
544.694	487.571
544.822	485.605
544.950	487.092
545.078	482.689
545.206	484.487
545.335	484.555
545.463	486.672
545.591	486.824
545.719	490.118
545.847	487.151
545.975	490.546
546.103	484.420
546.231	488.874
546.360	485.353
546.488	488.303
546.616	485.361
546.744	492.176
546.872	486.899
547.000	488.899
547.128	488.824
547.256	489.319
547.385	486.571
547.513	484.950
547.641	487.361
547.769	497.042
547.897	489.723
548.025	486.983
548.153	488.723
548.281	489.261
548.410	487.882
548.538	492.403
548.666	486.244
548.794	490.916
548.922	486.672
549.050	493.286
549.178	485.706
549.306	492.899
549.435	498.412
549.563	491.328
549.691	486.664
549.819	493.454
549.947	494.319
550.075	491.941
550.203	498.261
550.331	492.647
550.460	493.664
550.588	491.739
550.716	498.000
550.844	495.092
550.972	488.613
551.100	497.218
551.228	494.134
551.356	501.042
551.485	496.496
551.613	493.092
551.741	492.689
551.869	494.185
551.997	490.118
552.125	488.050
552.253	491.378
552.381	489.235
552.510	492.059
552.638	491.782
552.766	496.429
552.894	484.992
553.022	491.202
553.150	489.202
553.278	484.202
553.406	485.109
553.535	484.109
553.663	487.765
553.791	485.143
553.919	488.319
554.047	489.849
554.175	488.563
554.303	485.521
554.431	488.025
554.560	487.294
554.688	492.723
554.816	492.311
554.944	490.017
555.072	491.092
555.200	487.395
555.328	485.891
555.456	490.168
555.585	490.160
555.713	486.571
555.841	486.336
555.969	484.992
556.097	496.160
556.225	486.571
556.353	486.529
556.481	492.235
556.610	493.924
556.738	499.857
556.866	495.353
556.994	487.807
557.122	492.067
557.250	492.109
557.378	494.235
557.506	494.412
557.635	488.529
557.763	492.017
557.891	496.387
558.019	493.395
558.147	491.908
558.275	500.034
558.403	499.807
558.531	497.151
558.660	490.647
558.788	493.924
558.916	496.588
559.044	490.345
559.172	496.504
559.300	505.958
559.428	491.261
559.556	499.866
559.685	501.622
559.813	495.504
559.941	501.445
560.069	506.303
560.197	494.983
560.325	501.445
560.453	496.311
560.581	503.807
560.710	495.067
560.838	491.580
560.966	493.160
561.094	507.160
561.222	494.479
561.350	499.622
561.478	492.748
561.606	497.950
561.735	496.588
561.863	497.731
561.991	496.000
562.119	496.235
562.247	497.336
562.375	496.697
562.503	494.941
562.631	497.017
562.760	494.672
562.888	496.647
563.016	498.840
563.144	498.101
563.272	498.655
563.400	491.269
563.528	491.782
563.656	502.034
563.785	501.252
563.913	498.588
564.041	490.630
564.169	496.756
564.297	498.655
564.425	496.109
564.553	505.597
564.681	504.521
564.810	497.134
564.938	498.176
565.066	502.613
565.194	499.076
565.322	501.672
565.450	506.689
565.578	503.454
565.706	506.815
565.835	502.513
565.963	502.185
566.091	508.252
566.219	504.345
566.347	510.420
566.475	508.487
566.603	512.261
566.731	510.235
566.860	509.429
566.988	508.580
567.116	516.034
567.244	516.168
567.372	518.555
567.500	519.992
567.628	517.950
567.756	520.731
567.885	517.261
568.013	523.286
568.141	524.092
568.269	518.697
568.397	521.689
568.525	521.101
568.653	530.697
568.781	524.176
568.910	535.597
569.038	525.975
569.166	524.807
569.294	526.605
569.422	528.311
569.550	527.487
569.678	532.017
569.806	534.017
569.935	530.891
570.063	531.790
570.191	535.160
570.319	537.571
570.447	534.370
570.575	534.345
570.703	536.706
570.831	544.916
570.960	543.555
571.088	542.874
571.216	537.983
571.344	542.529
571.472	541.025
571.600	543.529
571.728	545.513
571.856	538.563
571.985	539.824
572.113	544.882
572.241	543.546
572.369	547.151
572.497	545.908
572.625	552.941
572.753	555.059
572.881	552.924
573.010	552.361
573.138	552.454
573.266	557.134
573.394	557.941
573.522	553.403
573.650	559.370
573.778	554.202
573.906	553.076
574.035	555.782
574.163	553.487
574.291	557.807
574.419	555.605
574.547	559.765
574.675	561.319
574.803	563.487
574.931	558.370
575.060	563.529
575.188	560.395
575.316	559.681
575.444	564.126
575.572	563.059
575.700	554.286
575.828	569.824
575.956	569.597
576.085	562.034
576.213	574.235
576.341	565.118
576.469	571.328
576.597	562.924
576.725	565.538
576.853	559.714
576.981	563.824
577.110	566.445
577.238	576.672
577.366	563.479
577.494	567.630
577.622	564.916
577.750	567.311
577.878	571.319
578.006	570.311
578.135	576.538
578.263	569.782
578.391	578.815
578.519	573.294
578.647	580.782
578.775	573.017
578.903	571.832
579.031	575.983
579.160	576.387
579.288	573.924
579.416	574.840
579.544	574.908
579.672	575.857
579.800	577.076
579.928	573.437
580.056	580.345
580.185	576.950
580.313	580.739
580.441	582.395
580.569	578.714
580.697	582.899
580.825	588.529
580.953	585.706
581.081	586.538
581.210	595.739
581.338	594.084
581.466	595.059
581.594	598.664
581.722	594.655
581.850	590.580
581.978	598.210
582.106	601.092
582.235	606.748
582.363	597.176
582.491	609.193
582.619	600.882
582.747	606.975
582.875	608.311
583.003	615.420
583.131	611.210
583.260	610.824
583.388	617.235
583.516	620.134
583.644	619.235
583.772	622.034
583.900	625.521
584.028	629.328
584.156	627.429
584.285	632.588
584.413	626.739
584.541	635.546
584.669	635.773
584.797	628.471
584.925	633.605
585.053	641.311
585.181	646.538
585.310	644.824
585.438	638.210
585.566	645.513
585.694	654.714
585.822	652.462
585.950	659.597
586.078	656.731
586.206	657.050
586.335	664.849
586.463	663.067
586.591	663.168
586.719	661.874
586.847	659.765
586.975	659.084
587.103	667.857
587.231	668.983
587.360	667.857
587.488	672.891
587.616	681.496
587.744	679.588
587.872	676.000
588.000	679.008
588.128	686.899
588.256	680.420
588.385	678.739
588.513	685.109
588.641	689.689
588.769	688.882
588.897	687.849
589.025	686.067
589.153	689.613
589.281	683.689
589.410	690.487
589.538	686.790
589.666	696.218
589.794	687.798
589.922	700.370
590.050	700.328
590.178	688.950
590.306	699.067
590.435	697.025
590.563	691.916
590.691	696.874
590.819	698.513
590.947	711.832
591.075	698.798
591.203	695.353
591.331	711.555
591.460	710.639
591.588	704.244
591.716	710.882
591.844	712.252
591.972	717.756
592.100	706.689
592.228	718.008
592.356	710.118
592.485	707.941
592.613	710.773
592.741	719.622
592.869	715.504
592.997	719.034
593.125	727.975
593.253	728.992
593.381	722.008
593.510	730.210
593.638	725.538
593.766	728.303
593.894	728.639
594.022	733.319
594.150	736.059
594.278	735.672
594.406	736.462
594.535	736.059
594.663	739.529
594.791	739.605
594.919	742.639
595.047	745.866
595.175	751.479
595.303	746.361
595.431	749.202
595.560	761.613
595.688	758.050
595.816	755.361
595.944	764.571
596.072	762.966
596.200	766.109
596.328	766.193
596.456	765.101
596.585	769.950
596.713	776.899
596.841	776.017
596.969	781.916
597.097	780.319
597.225	777.866
597.353	775.042
597.481	784.454
597.610	787.269
597.738	779.815
597.866	784.622
597.994	782.605
598.122	802.664
598.250	790.563
598.378	795.160
598.506	792.101
598.635	794.765
598.763	805.622
598.891	800.437
599.019	808.655
599.147	803.185
599.275	812.832
599.403	806.471
599.531	811.689
599.660	813.437
599.788	825.950
599.916	810.210
600.044	817.084
600.172	817.630
600.300	826.143
600.428	812.445
600.556	827.328
600.685	831.143
600.813	825.857
600.941	838.790
601.069	840.227
601.197	842.303
601.325	834.328
601.453	844.269
601.581	853.538
601.710	851.387
601.838	852.437
601.966	858.790
602.094	851.866
602.222	863.773
602.350	860.042
602.478	869.496
602.606	874.765
602.735	863.866
602.863	874.899
602.991	882.849
603.119	884.361
603.247	884.227
603.375	886.345
603.503	884.874
603.631	900.395
603.760	895.479
603.888	889.328
604.016	898.739
604.144	912.218
604.272	908.672
604.400	908.202
604.528	909.588
604.656	914.134
604.785	917.613
604.913	924.933
605.041	928.269
605.169	924.294
605.297	917.227
605.425	930.311
605.553	934.345
605.681	920.597
605.810	930.563
605.938	935.479
606.066	939.555
606.194	941.647
606.322	940.958
606.450	952.345
606.578	957.227
606.706	949.697
606.835	960.664
606.963	953.151
607.091	965.076
607.219	956.824
607.347	966.160
607.475	979.235
607.603	975.042
607.731	975.345
607.860	967.067
607.988	966.429
608.116	964.899
608.244	969.437
608.372	981.395
608.500	989.975
608.628	978.084
608.756	986.303
608.885	986.815
609.013	979.445
609.141	983.319
609.269	986.815
609.397	983.765
609.525	987.303
609.653	989.084
609.781	997.126
609.910	989.420
610.038	994.261
610.166	988.588
610.294	994.815
610.422	998.697
610.550	995.059
610.678	1007.429
610.806	1006.076
610.935	1009.723
611.063	1009.924
611.191	1007.731
611.319	1018.319
611.447	1012.101
611.575	1018.067
611.703	1007.689
611.831	1022.723
611.960	1021.630
612.088	1028.891
612.216	1030.824
612.344	1033.034
612.472	1026.790
612.600	1032.697
612.728	1027.412
612.856	1034.605
612.985	1033.437
613.113	1033.151
613.241	1037.983
613.369	1044.143
613.497	1046.933
613.625	1042.529
613.753	1050.630
613.881	1036.244
614.010	1053.118
614.138	1046.269
614.266	1041.983
614.394	1049.739
614.522	1053.370
614.650	1067.756
614.778	1056.076
614.906	1070.437
615.035	1058.076
615.163	1063.471
615.291	1069.269
615.419	1061.731
615.547	1065.252
615.675	1071.420
615.803	1075.689
615.931	1086.336
616.060	1087.252
616.188	1086.513
616.316	1080.731
616.444	1086.874
616.572	1089.471
616.700	1090.924
616.828	1104.538
616.956	1105.723
617.085	1107.731
617.213	1103.168
617.341	1108.378
617.469	1110.731
617.597	1117.008
617.725	1129.210
617.853	1115.277
617.981	1122.983
618.110	1129.866
618.238	1134.975
618.366	1142.513
618.494	1145.000
618.622	1151.546
618.750	1146.361
618.878	1141.504
619.006	1146.840
619.135	1156.210
619.263	1152.916
619.391	1170.378
619.519	1157.672
619.647	1180.571
619.775	1176.605
619.903	1187.672
620.031	1182.143
620.160	1178.454
620.288	1185.420
620.416	1199.345
620.544	1200.311
620.672	1208.958
620.800	1204.412
620.928	1213.395
621.056	1213.941
621.185	1207.353
621.313	1215.067
621.441	1225.588
621.569	1236.210
621.697	1228.790
621.825	1246.588
621.953	1238.588
622.081	1251.521
622.210	1244.496
622.338	1257.176
622.466	1250.731
622.594	1261.992
622.722	1274.025
622.850	1273.336
622.978	1273.042
623.106	1269.412
623.235	1289.345
623.363	1279.118
623.491	1284.916
623.619	1281.008
623.747	1280.294
623.875	1293.143
624.003	1295.101
624.131	1290.958
624.260	1291.059
624.388	1300.311
624.516	1311.924
624.644	1304.655
624.772	1310.311
624.900	1316.513
625.028	1306.513
625.156	1336.437
625.285	1311.748
625.413	1317.151
625.541	1319.319
625.669	1329.092
625.797	1327.647
625.925	1331.042
626.053	1334.303
626.181	1345.361
626.310	1345.546
626.438	1336.017
626.566	1333.134
626.694	1347.050
626.822	1348.017
626.950	1355.555
627.078	1348.950
627.206	1345.866
627.335	1367.504
627.463	1363.319
627.591	1370.655
627.719	1370.496
627.847	1379.412
627.975	1378.210
628.103	1372.782
628.231	1385.437
628.360	1372.748
628.488	1386.513
628.616	1397.924
628.744	1390.765
628.872	1396.765
629.000	1396.008
629.128	1401.151
629.256	1411.605
629.385	1397.269
629.513	1396.261
629.641	1411.966
629.769	1404.546
629.897	1405.756
630.025	1412.706
630.153	1432.126
630.281	1429.697
630.410	1415.193
630.538	1437.328
630.666	1433.672
630.794	1434.151
630.922	1420.210
631.050	1429.252
631.178	1444.790
631.306	1437.891
631.435	1445.210
631.563	1436.101
631.691	1432.538
631.819	1448.168
631.947	1457.008
632.075	1452.328
632.203	1457.681
632.331	1462.277
632.460	1447.630
632.588	1463.235
632.716	1473.706
632.844	1448.134
632.972	1486.824
633.100	1477.353
633.228	1478.084
633.356	1472.899
633.485	1477.571
633.613	1493.513
633.741	1473.782
633.869	1485.210
633.997	1493.622
634.125	1488.555
634.253	1491.227
634.381	1491.353
634.510	1501.840
634.638	1478.739
634.766	1481.471
634.894	1496.706
635.022	1491.118
635.150	1502.345
635.278	1523.353
635.406	1507.034
635.535	1510.437
635.663	1511.429
635.791	1502.992
635.919	1533.210
636.047	1512.580
636.175	1498.824
636.303	1519.538
636.431	1525.202
636.560	1526.630
636.688	1537.210
636.816	1534.933
636.944	1524.706
637.072	1546.697
637.200	1530.218
637.328	1522.042
637.456	1545.210
637.585	1530.059
637.713	1548.504
637.841	1540.487
637.969	1534.286
638.097	1545.134
638.225	1554.950
638.353	1563.143
638.481	1551.622
638.610	1571.319
638.738	1561.798
638.866	1560.479
638.994	1561.311
639.122	1570.252
639.250	1584.059
639.378	1583.706
639.506	1567.983
639.635	1586.277
639.763	1564.605
639.891	1587.714
640.019	1584.697
640.147	1593.924
640.275	1584.857
640.403	1591.714
640.531	1592.370
640.660	1594.874
640.788	1602.403
640.916	1600.908
641.044	1615.387
641.172	1603.950
641.300	1622.983
641.428	1623.824
641.556	1631.101
641.685	1616.034
641.813	1620.832
641.941	1630.790
642.069	1633.555
642.197	1634.420
642.325	1619.034
642.453	1649.992
642.581	1650.866
642.710	1645.303
642.838	1657.681
642.966	1657.437
643.094	1655.244
643.222	1656.857
643.350	1664.017
643.478	1673.807
643.606	1672.176
643.735	1675.975
643.863	1659.983
643.991	1691.345
644.119	1668.109
644.247	1679.025
644.375	1684.924
644.503	1696.496
644.631	1694.303
644.760	1701.748
644.888	1700.067
645.016	1713.109
645.144	1712.437
645.272	1698.941
645.400	1704.529
645.528	1713.563
645.656	1707.950
645.785	1715.025
645.913	1722.202
646.041	1735.504
646.169	1711.126
646.297	1705.067
646.425	1729.076
646.553	1719.042
646.681	1733.143
646.810	1728.664
646.938	1730.067
647.066	1711.235
647.194	1730.504
647.322	1721.832
647.450	1724.992
647.578	1739.916
647.706	1734.874
647.835	1743.126
647.963	1724.966
648.091	1746.807
648.219	1729.681
648.347	1744.336
648.475	1745.588
648.603	1736.496
648.731	1744.387
648.860	1728.319
648.988	1740.504
649.116	1753.748
649.244	1731.588
649.372	1733.933
649.500	1739.008
649.628	1748.336
649.756	1737.361
649.885	1724.042
650.013	1734.118
650.141	1737.227
650.269	1717.303
650.397	1732.529
650.525	1731.025
650.653	1728.294
650.781	1716.143
650.910	1719.193
651.038	1716.941
651.166	1711.916
651.294	1717.706
651.422	1711.916
651.550	1702.664
651.678	1703.471
651.806	1707.084
651.935	1721.655
652.063	1694.782
652.191	1702.193
652.319	1705.504
652.447	1703.286
652.575	1694.042
652.703	1697.613
652.831	1696.000
652.960	1702.605
653.088	1694.277
653.216	1675.336
653.344	1683.697
653.472	1691.210
653.600	1693.504
653.728	1682.210
653.856	1694.193
653.985	1688.378
654.113	1693.000
654.241	1688.109
654.369	1693.899
654.497	1706.412
654.625	1678.244
654.753	1684.387
654.881	1676.681
655.010	1691.790
655.138	1678.067
655.266	1682.218
655.394	1667.840
655.522	1670.454
655.650	1672.387
655.778	1668.580
655.906	1678.824
656.035	1677.017
656.163	1676.462
656.291	1677.126
656.419	1677.437
656.547	1676.454
656.675	1662.202
656.803	1666.597
656.931	1659.387
657.060	1660.815
657.188	1667.235
657.316	1672.000
657.444	1674.437
657.572	1669.092
657.700	1667.235
657.828	1662.882
657.956	1669.613
658.085	1691.067
658.213	1649.000
658.341	1656.025
658.469	1659.966
658.597	1660.471
658.725	1669.882
658.853	1652.655
658.981	1655.773
659.110	1662.790
659.238	1659.210
659.366	1662.042
659.494	1648.975
659.622	1646.336
659.750	1662.403
659.878	1657.798
660.006	1659.202
660.135	1649.832
660.263	1656.387
660.391	1633.412
660.519	1656.017
660.647	1629.345
660.775	1650.983
660.903	1645.756
661.031	1638.807
661.160	1641.580
661.288	1645.840
661.416	1648.714
661.544	1635.311
661.672	1636.580
661.800	1641.437
661.928	1638.613
