70-90-90_at_679.99nm_cut_at_1283.50Y_01.dat
24.01.2024
11:28:33
cut middle at Y: 1283.50
top cursor: 1343 down cursor: 1224 mean of: 119 lines , 2560 datapoints
wavelength(nm)	intensity[arb. units]
515.994	440.529
516.122	418.975
516.250	419.067
516.378	408.202
516.506	407.580
516.635	412.975
516.763	413.311
516.891	415.235
517.019	420.471
517.147	412.630
517.275	415.261
517.403	417.630
517.531	416.672
517.660	418.294
517.788	418.025
517.916	419.143
518.044	417.412
518.172	420.185
518.300	416.378
518.428	415.857
518.556	417.992
518.685	420.000
518.813	421.345
518.941	420.874
519.069	419.630
519.197	418.445
519.325	420.101
519.453	421.681
519.581	427.857
519.710	425.000
519.838	426.017
519.966	424.429
520.094	429.479
520.222	425.059
520.350	427.597
520.478	435.008
520.606	435.849
520.735	428.269
520.863	429.134
520.991	435.647
521.119	434.555
521.247	435.639
521.375	431.588
521.503	438.067
521.631	441.933
521.760	436.756
521.888	441.840
522.016	443.874
522.144	443.689
522.272	443.370
522.400	445.496
522.528	450.681
522.656	444.824
522.785	446.454
522.913	453.597
523.041	444.303
523.169	445.252
523.297	449.840
523.425	450.630
523.553	450.185
523.681	451.202
523.810	450.328
523.938	451.605
524.066	452.420
524.194	452.235
524.322	451.664
524.450	448.437
524.578	451.109
524.706	450.101
524.835	451.748
524.963	456.874
525.091	451.748
525.219	453.067
525.347	455.697
525.475	450.454
525.603	451.630
525.731	454.840
525.860	455.941
525.988	450.647
526.116	450.765
526.244	451.479
526.372	449.899
526.500	455.639
526.628	461.672
526.756	453.437
526.885	456.496
527.013	453.916
527.141	456.319
527.269	454.017
527.397	457.765
527.525	458.933
527.653	455.697
527.781	451.345
527.910	456.916
528.038	456.017
528.166	461.639
528.294	460.731
528.422	462.084
528.550	462.387
528.678	463.597
528.806	461.109
528.935	466.210
529.063	461.655
529.191	469.034
529.319	463.176
529.447	468.689
529.575	470.277
529.703	468.176
529.831	467.429
529.960	464.983
530.088	469.471
530.216	476.538
530.344	467.193
530.472	472.496
530.600	478.513
530.728	473.395
530.856	475.504
530.985	478.176
531.113	472.210
531.241	479.933
531.369	475.185
531.497	478.504
531.625	478.899
531.753	477.286
531.881	482.580
532.010	481.714
532.138	476.798
532.266	475.193
532.394	479.832
532.522	476.109
532.650	475.765
532.778	486.504
532.906	482.874
533.035	479.504
533.163	481.076
533.291	477.303
533.419	473.370
533.547	481.798
533.675	478.908
533.803	474.672
533.931	479.353
534.060	476.916
534.188	485.050
534.316	477.924
534.444	475.529
534.572	478.882
534.700	480.134
534.828	477.202
534.956	479.454
535.085	481.798
535.213	479.076
535.341	486.731
535.469	481.269
535.597	481.076
535.725	490.429
535.853	482.420
535.981	485.580
536.110	493.227
536.238	493.748
536.366	492.546
536.494	488.874
536.622	492.723
536.750	489.706
536.878	489.134
537.006	493.387
537.135	494.748
537.263	500.924
537.391	500.555
537.519	497.832
537.647	499.866
537.775	500.588
537.903	505.059
538.031	501.689
538.160	507.739
538.288	506.899
538.416	505.076
538.544	502.345
538.672	507.252
538.800	504.966
538.928	508.286
539.056	508.277
539.185	509.311
539.313	506.622
539.441	514.353
539.569	515.345
539.697	512.336
539.825	513.941
539.953	507.983
540.081	509.176
540.210	512.866
540.338	516.118
540.466	518.639
540.594	517.076
540.722	511.655
540.850	518.983
540.978	518.084
541.106	518.193
541.235	512.059
541.363	515.454
541.491	524.286
541.619	512.647
541.747	511.353
541.875	516.294
542.003	514.672
542.131	512.126
542.260	518.084
542.388	522.378
542.516	520.126
542.644	520.118
542.772	516.681
542.900	514.412
543.028	520.412
543.156	520.261
543.285	523.580
543.413	519.487
543.541	522.403
543.669	522.655
543.797	527.597
543.925	523.311
544.053	520.908
544.181	525.521
544.310	519.773
544.438	520.227
544.566	527.529
544.694	524.874
544.822	525.630
544.950	527.546
545.078	533.118
545.206	530.840
545.335	532.387
545.463	524.975
545.591	533.798
545.719	529.908
545.847	526.429
545.975	535.210
546.103	530.681
546.231	532.092
546.360	529.891
546.488	536.387
546.616	536.521
546.744	536.924
546.872	531.437
547.000	536.773
547.128	536.580
547.256	535.765
547.385	533.916
547.513	535.647
547.641	539.882
547.769	538.176
547.897	540.513
548.025	541.798
548.153	543.092
548.281	539.168
548.410	541.731
548.538	542.815
548.666	538.824
548.794	539.269
548.922	542.059
549.050	540.647
549.178	545.513
549.306	544.445
549.435	550.336
549.563	543.723
549.691	536.815
549.819	546.832
549.947	551.092
550.075	546.647
550.203	541.193
550.331	546.218
550.460	548.756
550.588	542.782
550.716	551.723
550.844	546.403
550.972	542.303
551.100	545.941
551.228	548.361
551.356	534.336
551.485	543.613
551.613	544.546
551.741	542.218
551.869	536.109
551.997	537.723
552.125	537.706
552.253	539.689
552.381	534.151
552.510	533.403
552.638	533.866
552.766	539.807
552.894	529.622
553.022	535.328
553.150	531.958
553.278	535.101
553.406	537.210
553.535	530.832
553.663	539.504
553.791	530.454
553.919	535.050
554.047	538.513
554.175	531.798
554.303	531.076
554.431	529.571
554.560	536.345
554.688	537.235
554.816	537.429
554.944	532.824
555.072	540.126
555.200	539.866
555.328	537.899
555.456	544.706
555.585	538.227
555.713	539.479
555.841	550.118
555.969	542.067
556.097	543.050
556.225	546.000
556.353	549.000
556.481	543.891
556.610	553.160
556.738	550.000
556.866	549.370
556.994	543.697
557.122	547.202
557.250	551.866
557.378	557.017
557.506	551.849
557.635	551.849
557.763	549.899
557.891	558.420
558.019	550.168
558.147	553.193
558.275	554.151
558.403	559.361
558.531	563.479
558.660	560.479
558.788	559.134
558.916	561.588
559.044	554.395
559.172	563.025
559.300	565.739
559.428	563.874
559.556	569.622
559.685	567.605
559.813	564.336
559.941	566.891
560.069	571.664
560.197	566.109
560.325	567.697
560.453	571.261
560.581	567.950
560.710	568.462
560.838	567.076
560.966	574.513
561.094	574.681
561.222	569.840
561.350	563.277
561.478	570.487
561.606	570.277
561.735	569.487
561.863	566.244
561.991	564.613
562.119	564.950
562.247	566.160
562.375	570.059
562.503	571.050
562.631	566.252
562.760	569.076
562.888	571.983
563.016	567.697
563.144	567.916
563.272	572.597
563.400	566.235
563.528	565.378
563.656	568.714
563.785	564.966
563.913	566.109
564.041	570.857
564.169	568.311
564.297	568.916
564.425	563.513
564.553	568.395
564.681	570.353
564.810	570.672
564.938	571.975
565.066	572.319
565.194	576.134
565.322	572.622
565.450	571.639
565.578	576.882
565.706	570.076
565.835	576.050
565.963	571.748
566.091	576.546
566.219	576.933
566.347	581.513
566.475	580.042
566.603	578.202
566.731	583.866
566.860	581.050
566.988	580.966
567.116	583.034
567.244	578.647
567.372	589.244
567.500	586.655
567.628	591.336
567.756	592.546
567.885	590.471
568.013	596.697
568.141	593.143
568.269	595.908
568.397	596.513
568.525	595.185
568.653	601.059
568.781	599.067
568.910	614.387
569.038	601.697
569.166	604.134
569.294	602.235
569.422	609.563
569.550	611.462
569.678	613.370
569.806	610.815
569.935	617.681
570.063	615.756
570.191	615.471
570.319	615.849
570.447	615.714
570.575	618.866
570.703	621.017
570.831	625.807
570.960	624.857
571.088	622.765
571.216	626.445
571.344	632.328
571.472	630.798
571.600	632.731
571.728	629.723
571.856	630.975
571.985	637.353
572.113	636.765
572.241	633.387
572.369	648.706
572.497	641.042
572.625	641.630
572.753	639.798
572.881	638.815
573.010	643.840
573.138	651.420
573.266	644.361
573.394	650.504
573.522	645.202
573.650	644.118
573.778	646.277
573.906	648.118
574.035	647.916
574.163	652.756
574.291	643.689
574.419	653.353
574.547	654.815
574.675	659.924
574.803	652.513
574.931	656.311
575.060	656.151
575.188	654.471
575.316	653.017
575.444	658.387
575.572	662.454
575.700	646.958
575.828	663.765
575.956	659.403
576.085	659.739
576.213	659.933
576.341	656.235
576.469	658.328
576.597	655.563
576.725	654.269
576.853	650.824
576.981	661.521
577.110	661.143
577.238	663.874
577.366	656.899
577.494	656.950
577.622	656.034
577.750	657.681
577.878	652.899
578.006	664.420
578.135	661.370
578.263	662.983
578.391	663.580
578.519	658.748
578.647	667.328
578.775	662.824
578.903	660.529
579.031	665.000
579.160	664.252
579.288	663.908
579.416	661.252
579.544	663.866
579.672	672.521
579.800	669.664
579.928	662.563
580.056	660.328
580.185	663.084
580.313	669.832
580.441	670.235
580.569	670.891
580.697	665.109
580.825	672.328
580.953	682.597
581.081	674.378
581.210	679.000
581.338	676.050
581.466	679.353
581.594	680.269
581.722	674.269
581.850	670.605
581.978	680.227
582.106	680.983
582.235	680.992
582.363	678.866
582.491	681.185
582.619	685.765
582.747	692.008
582.875	693.445
583.003	690.882
583.131	697.151
583.260	696.059
583.388	697.908
583.516	704.748
583.644	706.328
583.772	704.790
583.900	709.437
584.028	710.924
584.156	706.504
584.285	721.202
584.413	719.017
584.541	718.412
584.669	721.866
584.797	718.605
584.925	724.143
585.053	723.950
585.181	728.613
585.310	734.454
585.438	737.025
585.566	738.731
585.694	741.874
585.822	746.269
585.950	742.294
586.078	744.706
586.206	753.739
586.335	757.227
586.463	751.151
586.591	763.664
586.719	756.571
586.847	767.630
586.975	766.303
587.103	767.437
587.231	765.882
587.360	771.588
587.488	774.782
587.616	773.672
587.744	776.832
587.872	769.084
588.000	770.067
588.128	778.109
588.256	783.487
588.385	776.370
588.513	777.387
588.641	778.655
588.769	792.496
588.897	787.807
589.025	783.933
589.153	788.882
589.281	783.008
589.410	793.790
589.538	792.908
589.666	789.782
589.794	792.655
589.922	800.185
590.050	795.992
590.178	801.546
590.306	802.605
590.435	801.034
590.563	792.252
590.691	799.513
590.819	805.941
590.947	816.899
591.075	803.143
591.203	804.798
591.331	809.983
591.460	816.294
591.588	804.101
591.716	806.160
591.844	813.899
591.972	822.395
592.100	816.798
592.228	823.689
592.356	821.899
592.485	817.445
592.613	817.941
592.741	826.538
592.869	822.202
592.997	834.798
593.125	840.151
593.253	833.630
593.381	830.361
593.510	841.916
593.638	835.101
593.766	835.454
593.894	844.563
594.022	846.042
594.150	844.521
594.278	854.050
594.406	842.059
594.535	847.487
594.663	852.193
594.791	851.529
594.919	860.672
595.047	858.899
595.175	861.739
595.303	865.891
595.431	856.319
595.560	871.580
595.688	866.403
595.816	864.630
595.944	868.622
596.072	873.840
596.200	876.950
596.328	883.471
596.456	881.689
596.585	887.076
596.713	887.092
596.841	890.311
596.969	888.899
597.097	895.000
597.225	895.101
597.353	902.975
597.481	902.244
597.610	900.992
597.738	912.613
597.866	907.218
597.994	914.286
598.122	923.857
598.250	909.966
598.378	915.277
598.506	927.462
598.635	912.513
598.763	927.874
598.891	926.597
599.019	935.807
599.147	926.050
599.275	937.151
599.403	939.126
599.531	940.672
599.660	942.529
599.788	946.395
599.916	942.042
600.044	944.378
600.172	952.941
600.300	956.916
600.428	953.933
600.556	964.588
600.685	971.261
600.813	965.597
600.941	974.563
601.069	970.311
601.197	977.059
601.325	973.168
601.453	981.353
601.581	982.378
601.710	989.160
601.838	996.790
601.966	997.580
602.094	1000.025
602.222	999.664
602.350	999.882
602.478	1000.639
602.606	1016.605
602.735	1008.269
602.863	1017.983
602.991	1023.975
603.119	1030.311
603.247	1027.597
603.375	1030.630
603.503	1031.731
603.631	1040.235
603.760	1043.790
603.888	1048.143
604.016	1049.160
604.144	1048.345
604.272	1047.261
604.400	1061.395
604.528	1055.286
604.656	1066.790
604.785	1071.286
604.913	1079.092
605.041	1080.664
605.169	1078.689
605.297	1088.756
605.425	1082.513
605.553	1092.983
605.681	1096.118
605.810	1093.916
605.938	1101.966
606.066	1102.059
606.194	1106.269
606.322	1102.613
606.450	1114.756
606.578	1116.429
606.706	1113.739
606.835	1119.924
606.963	1122.966
607.091	1129.076
607.219	1127.992
607.347	1122.378
607.475	1137.286
607.603	1140.655
607.731	1140.319
607.860	1131.681
607.988	1146.437
608.116	1138.126
608.244	1149.479
608.372	1145.798
608.500	1148.370
608.628	1144.471
608.756	1151.328
608.885	1161.958
609.013	1149.874
609.141	1160.269
609.269	1158.849
609.397	1155.756
609.525	1160.689
609.653	1165.471
609.781	1165.782
609.910	1153.160
610.038	1160.151
610.166	1161.218
610.294	1165.992
610.422	1171.966
610.550	1167.571
610.678	1168.580
610.806	1178.294
610.935	1182.261
611.063	1173.294
611.191	1176.790
611.319	1165.479
611.447	1181.765
611.575	1180.849
611.703	1177.958
611.831	1192.252
611.960	1181.025
612.088	1189.622
612.216	1189.277
612.344	1202.193
612.472	1185.092
612.600	1198.387
612.728	1187.941
612.856	1191.311
612.985	1192.807
613.113	1196.504
613.241	1211.983
613.369	1209.126
613.497	1212.092
613.625	1210.403
613.753	1209.571
613.881	1215.538
614.010	1214.185
614.138	1213.580
614.266	1209.950
614.394	1205.866
614.522	1214.244
614.650	1231.773
614.778	1221.639
614.906	1246.647
615.035	1228.798
615.163	1226.857
615.291	1236.076
615.419	1240.571
615.547	1236.798
615.675	1233.076
615.803	1239.975
615.931	1257.992
616.060	1250.874
616.188	1253.941
616.316	1246.672
616.444	1254.647
616.572	1262.874
616.700	1263.630
616.828	1276.496
616.956	1285.370
617.085	1292.479
617.213	1289.378
617.341	1275.697
617.469	1281.471
617.597	1291.655
617.725	1297.538
617.853	1296.303
617.981	1299.336
618.110	1313.218
618.238	1305.202
618.366	1318.134
618.494	1310.874
618.622	1318.252
618.750	1319.655
618.878	1329.807
619.006	1321.874
619.135	1341.807
619.263	1335.706
619.391	1344.185
619.519	1341.689
619.647	1359.857
619.775	1358.244
619.903	1365.681
620.031	1366.689
620.160	1364.420
620.288	1368.403
620.416	1379.647
620.544	1373.655
620.672	1394.160
620.800	1372.555
620.928	1401.008
621.056	1391.244
621.185	1403.950
621.313	1406.899
621.441	1421.580
621.569	1436.630
621.697	1422.445
621.825	1432.202
621.953	1434.655
622.081	1448.597
622.210	1436.882
622.338	1442.546
622.466	1438.311
622.594	1447.403
622.722	1458.294
622.850	1457.311
622.978	1466.294
623.106	1456.664
623.235	1483.109
623.363	1462.983
623.491	1466.176
623.619	1469.050
623.747	1472.328
623.875	1484.941
624.003	1486.798
624.131	1481.345
624.260	1471.353
624.388	1491.353
624.516	1499.454
624.644	1499.008
624.772	1501.303
624.900	1501.773
625.028	1504.874
625.156	1519.555
625.285	1509.286
625.413	1523.815
625.541	1508.832
625.669	1517.210
625.797	1521.336
625.925	1525.412
626.053	1523.067
626.181	1545.571
626.310	1529.739
626.438	1533.992
626.566	1530.580
626.694	1529.252
626.822	1528.874
626.950	1542.378
627.078	1552.513
627.206	1546.109
627.335	1562.454
627.463	1550.168
627.591	1556.336
627.719	1553.269
627.847	1551.176
627.975	1553.286
628.103	1568.571
628.231	1566.176
628.360	1565.395
628.488	1569.261
628.616	1571.916
628.744	1563.571
628.872	1572.025
629.000	1568.479
629.128	1576.361
629.256	1598.462
629.385	1585.487
629.513	1566.454
629.641	1581.815
629.769	1582.815
629.897	1587.891
630.025	1594.286
630.153	1603.697
630.281	1606.504
630.410	1587.345
630.538	1614.395
630.666	1601.605
630.794	1600.571
630.922	1593.739
631.050	1592.462
631.178	1599.546
631.306	1603.303
631.435	1606.655
631.563	1613.202
631.691	1597.034
631.819	1612.286
631.947	1626.513
632.075	1618.908
632.203	1625.731
632.331	1623.580
632.460	1611.597
632.588	1631.496
632.716	1627.378
632.844	1620.462
632.972	1635.370
633.100	1640.420
633.228	1640.849
633.356	1618.681
633.485	1634.303
633.613	1632.958
633.741	1628.345
633.869	1630.353
633.997	1633.185
634.125	1639.899
634.253	1623.706
634.381	1632.992
634.510	1647.975
634.638	1632.336
634.766	1637.235
634.894	1642.958
635.022	1631.529
635.150	1630.361
635.278	1660.723
635.406	1641.151
635.535	1646.479
635.663	1656.395
635.791	1642.176
635.919	1659.252
636.047	1651.504
636.175	1646.891
636.303	1645.580
636.431	1662.731
636.560	1652.277
636.688	1657.143
636.816	1656.034
636.944	1655.084
637.072	1663.655
637.200	1651.899
637.328	1652.992
637.456	1664.025
637.585	1669.513
637.713	1660.538
637.841	1664.336
637.969	1665.235
638.097	1655.126
638.225	1668.000
638.353	1673.462
638.481	1680.681
638.610	1678.067
638.738	1673.924
638.866	1671.992
638.994	1676.630
639.122	1680.160
639.250	1690.176
639.378	1685.975
639.506	1664.017
639.635	1691.134
639.763	1672.303
639.891	1682.815
640.019	1686.311
640.147	1683.345
640.275	1690.395
640.403	1686.294
640.531	1691.261
640.660	1682.639
640.788	1711.655
640.916	1690.227
641.044	1702.303
641.172	1701.580
641.300	1711.303
641.428	1707.639
641.556	1720.479
641.685	1709.109
641.813	1704.059
641.941	1726.151
642.069	1723.403
642.197	1723.034
642.325	1709.218
642.453	1733.538
642.581	1731.588
642.710	1713.504
642.838	1736.252
642.966	1728.521
643.094	1723.773
643.222	1721.908
643.350	1732.101
643.478	1740.714
643.606	1752.294
643.735	1732.882
643.863	1726.017
643.991	1764.176
644.119	1750.454
644.247	1759.866
644.375	1745.966
644.503	1775.303
644.631	1775.798
644.760	1771.681
644.888	1759.916
645.016	1759.420
645.144	1774.504
645.272	1761.227
645.400	1759.975
645.528	1761.303
645.656	1759.336
645.785	1762.588
645.913	1776.210
646.041	1775.992
646.169	1756.076
646.297	1757.286
646.425	1770.782
646.553	1766.151
646.681	1766.966
646.810	1754.714
646.938	1782.345
647.066	1763.160
647.194	1763.731
647.322	1760.630
647.450	1755.454
647.578	1762.529
647.706	1762.017
647.835	1767.882
647.963	1758.109
648.091	1769.731
648.219	1759.773
648.347	1762.891
648.475	1751.756
648.603	1761.445
648.731	1745.639
648.860	1742.538
648.988	1756.866
649.116	1752.857
649.244	1722.807
649.372	1736.361
649.500	1745.126
649.628	1752.000
649.756	1731.555
649.885	1717.714
650.013	1727.689
650.141	1713.118
650.269	1720.294
650.397	1729.639
650.525	1713.101
650.653	1723.118
650.781	1705.681
650.910	1712.513
651.038	1692.807
651.166	1700.681
651.294	1698.092
651.422	1689.109
651.550	1685.345
651.678	1673.950
651.806	1685.824
651.935	1683.605
652.063	1665.218
652.191	1669.387
652.319	1688.992
652.447	1659.008
652.575	1654.723
652.703	1638.916
652.831	1657.160
652.960	1647.790
653.088	1643.504
653.216	1622.286
653.344	1635.000
653.472	1647.765
653.600	1634.286
653.728	1644.361
653.856	1632.513
653.985	1645.277
654.113	1640.983
654.241	1635.345
654.369	1615.118
654.497	1635.420
654.625	1620.739
654.753	1622.697
654.881	1620.790
655.010	1629.025
655.138	1615.521
655.266	1610.034
655.394	1594.765
655.522	1609.622
655.650	1592.597
655.778	1598.857
655.906	1610.336
656.035	1600.571
656.163	1585.983
656.291	1596.773
656.419	1598.017
656.547	1598.588
656.675	1577.017
656.803	1592.605
656.931	1587.958
657.060	1585.429
657.188	1582.370
657.316	1582.269
657.444	1573.521
657.572	1563.697
657.700	1563.202
657.828	1581.395
657.956	1568.160
658.085	1592.866
658.213	1561.101
658.341	1568.067
658.469	1551.958
658.597	1570.689
658.725	1578.487
658.853	1563.429
658.981	1555.706
659.110	1567.050
659.238	1552.176
659.366	1552.933
659.494	1556.378
659.622	1545.714
659.750	1553.303
659.878	1548.185
660.006	1560.924
660.135	1540.261
660.263	1544.597
660.391	1536.235
660.519	1544.639
660.647	1536.050
660.775	1538.496
660.903	1531.866
661.031	1531.008
661.160	1524.529
661.288	1518.731
661.416	1528.748
661.544	1521.370
