70-90-unpol_at_679.99nm_cut_at_1283.50Y_01.dat
24.01.2024
11:29:08
cut middle at Y: 1283.50
top cursor: 1343 down cursor: 1224 mean of: 119 lines , 2560 datapoints
wavelength(nm)	intensity[arb. units]
515.994	1087.899
516.122	1029.286
516.250	1008.538
516.378	992.706
516.506	998.924
516.635	997.076
516.763	1011.353
516.891	1012.361
517.019	1010.227
517.147	1014.538
517.275	1024.647
517.403	1022.017
517.531	1013.546
517.660	1012.345
517.788	1017.723
517.916	1026.689
518.044	1013.731
518.172	1029.092
518.300	1028.588
518.428	1024.361
518.556	1027.891
518.685	1022.092
518.813	1031.983
518.941	1027.387
519.069	1031.504
519.197	1029.555
519.325	1043.420
519.453	1048.639
519.581	1057.387
519.710	1048.353
519.838	1047.042
519.966	1056.924
520.094	1050.655
520.222	1052.328
520.350	1065.286
520.478	1074.076
520.606	1070.210
520.735	1056.765
520.863	1073.336
520.991	1079.118
521.119	1083.866
521.247	1089.664
521.375	1091.580
521.503	1092.555
521.631	1097.731
521.760	1102.168
521.888	1103.714
522.016	1109.429
522.144	1095.966
522.272	1109.378
522.400	1105.983
522.528	1116.042
522.656	1117.773
522.785	1124.622
522.913	1125.042
523.041	1115.294
523.169	1121.403
523.297	1127.176
523.425	1127.605
523.553	1127.168
523.681	1123.857
523.810	1131.471
523.938	1144.345
524.066	1139.059
524.194	1139.849
524.322	1141.437
524.450	1145.353
524.578	1133.950
524.706	1144.966
524.835	1142.319
524.963	1139.134
525.091	1131.916
525.219	1137.714
525.347	1136.908
525.475	1148.866
525.603	1146.403
525.731	1148.546
525.860	1153.261
525.988	1131.176
526.116	1139.950
526.244	1149.672
526.372	1142.966
526.500	1145.471
526.628	1162.084
526.756	1136.403
526.885	1156.941
527.013	1153.420
527.141	1154.059
527.269	1148.084
527.397	1160.311
527.525	1161.571
527.653	1146.840
527.781	1143.084
527.910	1176.261
528.038	1166.252
528.166	1171.664
528.294	1163.143
528.422	1165.874
528.550	1171.504
528.678	1165.429
528.806	1177.588
528.935	1190.697
529.063	1182.807
529.191	1187.067
529.319	1190.588
529.447	1196.412
529.575	1193.336
529.703	1193.538
529.831	1200.966
529.960	1196.017
530.088	1193.748
530.216	1205.269
530.344	1201.252
530.472	1201.580
530.600	1210.479
530.728	1208.782
530.856	1215.454
530.985	1213.496
531.113	1202.555
531.241	1221.496
531.369	1217.118
531.497	1223.101
531.625	1220.571
531.753	1225.277
531.881	1230.034
532.010	1222.966
532.138	1212.924
532.266	1218.706
532.394	1219.277
532.522	1210.210
532.650	1235.437
532.778	1220.908
532.906	1226.160
533.035	1226.824
533.163	1219.941
533.291	1215.294
533.419	1209.218
533.547	1225.403
533.675	1221.908
533.803	1218.731
533.931	1232.681
534.060	1223.008
534.188	1230.067
534.316	1223.605
534.444	1221.849
534.572	1219.370
534.700	1225.034
534.828	1221.765
534.956	1229.235
535.085	1243.403
535.213	1234.353
535.341	1239.210
535.469	1226.269
535.597	1237.151
535.725	1242.933
535.853	1250.571
535.981	1247.000
536.110	1253.513
536.238	1253.370
536.366	1273.218
536.494	1239.807
536.622	1263.706
536.750	1265.655
536.878	1268.681
537.006	1283.353
537.135	1282.319
537.263	1287.815
537.391	1289.008
537.519	1282.286
537.647	1297.723
537.775	1301.160
537.903	1301.571
538.031	1297.218
538.160	1302.387
538.288	1301.874
538.416	1317.605
538.544	1309.109
538.672	1319.176
538.800	1324.874
538.928	1323.403
539.056	1334.202
539.185	1332.975
539.313	1323.328
539.441	1328.866
539.569	1336.958
539.697	1338.958
539.825	1347.563
539.953	1335.983
540.081	1318.882
540.210	1343.034
540.338	1344.714
540.466	1348.261
540.594	1348.202
540.722	1330.706
540.850	1348.824
540.978	1350.235
541.106	1350.529
541.235	1355.546
541.363	1345.092
541.491	1350.697
541.619	1340.992
541.747	1341.445
541.875	1350.748
542.003	1344.697
542.131	1346.622
542.260	1367.168
542.388	1355.605
542.516	1353.588
542.644	1359.866
542.772	1360.429
542.900	1360.748
543.028	1369.672
543.156	1378.538
543.285	1365.908
543.413	1361.042
543.541	1371.824
543.669	1382.092
543.797	1371.496
543.925	1370.731
544.053	1371.790
544.181	1378.261
544.310	1378.706
544.438	1368.252
544.566	1388.210
544.694	1393.840
544.822	1384.765
544.950	1394.899
545.078	1384.429
545.206	1381.748
545.335	1394.538
545.463	1380.160
545.591	1389.345
545.719	1380.017
545.847	1390.773
545.975	1399.218
546.103	1392.008
546.231	1399.361
546.360	1390.227
546.488	1397.731
546.616	1402.773
546.744	1406.118
546.872	1393.025
547.000	1398.664
547.128	1407.042
547.256	1405.185
547.385	1396.403
547.513	1394.630
547.641	1421.454
547.769	1414.613
547.897	1418.697
548.025	1417.555
548.153	1419.933
548.281	1402.193
548.410	1408.731
548.538	1410.101
548.666	1423.613
548.794	1420.857
548.922	1417.639
549.050	1431.067
549.178	1426.958
549.306	1427.874
549.435	1437.168
549.563	1423.958
549.691	1421.765
549.819	1440.504
549.947	1440.605
550.075	1431.706
550.203	1428.269
550.331	1433.513
550.460	1431.529
550.588	1431.244
550.716	1456.714
550.844	1424.143
550.972	1430.126
551.100	1430.588
551.228	1438.597
551.356	1426.471
551.485	1442.815
551.613	1424.605
551.741	1427.950
551.869	1419.227
551.997	1419.824
552.125	1424.824
552.253	1425.790
552.381	1408.487
552.510	1414.420
552.638	1419.798
552.766	1426.765
552.894	1409.655
553.022	1403.798
553.150	1411.563
553.278	1411.605
553.406	1412.235
553.535	1419.286
553.663	1403.773
553.791	1406.370
553.919	1396.647
554.047	1419.034
554.175	1408.756
554.303	1413.546
554.431	1397.395
554.560	1402.824
554.688	1422.950
554.816	1408.849
554.944	1412.798
555.072	1412.605
555.200	1413.647
555.328	1411.840
555.456	1423.723
555.585	1426.454
555.713	1424.832
555.841	1425.773
555.969	1414.042
556.097	1441.496
556.225	1436.933
556.353	1434.739
556.481	1430.950
556.610	1448.395
556.738	1444.202
556.866	1448.336
556.994	1442.210
557.122	1439.496
557.250	1448.563
557.378	1460.538
557.506	1445.992
557.635	1440.462
557.763	1462.538
557.891	1465.109
558.019	1452.311
558.147	1470.521
558.275	1466.084
558.403	1479.176
558.531	1467.571
558.660	1470.017
558.788	1465.958
558.916	1471.773
559.044	1467.403
559.172	1462.513
559.300	1485.798
559.428	1475.689
559.556	1484.218
559.685	1482.387
559.813	1478.748
559.941	1477.353
560.069	1491.807
560.197	1490.395
560.325	1486.782
560.453	1482.109
560.581	1490.647
560.710	1489.840
560.838	1484.992
560.966	1496.513
561.094	1498.143
561.222	1484.303
561.350	1483.235
561.478	1485.849
561.606	1501.303
561.735	1480.815
561.863	1481.773
561.991	1490.630
562.119	1481.126
562.247	1491.101
562.375	1489.908
562.503	1489.143
562.631	1483.109
562.760	1490.941
562.888	1487.798
563.016	1482.193
563.144	1482.807
563.272	1488.840
563.400	1480.168
563.528	1481.773
563.656	1490.672
563.785	1487.916
563.913	1483.336
564.041	1485.504
564.169	1486.983
564.297	1488.353
564.425	1475.739
564.553	1500.849
564.681	1499.496
564.810	1491.773
564.938	1507.824
565.066	1499.983
565.194	1509.521
565.322	1500.437
565.450	1511.462
565.578	1516.412
565.706	1506.017
565.835	1522.202
565.963	1505.580
566.091	1516.160
566.219	1526.563
566.347	1533.866
566.475	1519.496
566.603	1523.832
566.731	1531.092
566.860	1540.017
566.988	1531.874
567.116	1537.639
567.244	1548.815
567.372	1551.454
567.500	1560.319
567.628	1554.983
567.756	1561.496
567.885	1564.429
568.013	1578.529
568.141	1576.664
568.269	1574.958
568.397	1579.689
568.525	1563.891
568.653	1599.370
568.781	1604.092
568.910	1613.504
569.038	1601.286
569.166	1591.303
569.294	1595.454
569.422	1614.303
569.550	1595.269
569.678	1614.571
569.806	1617.807
569.935	1617.706
570.063	1622.966
570.191	1638.882
570.319	1641.218
570.447	1637.992
570.575	1638.286
570.703	1652.361
570.831	1658.370
570.960	1655.529
571.088	1651.479
571.216	1651.008
571.344	1646.084
571.472	1660.966
571.600	1673.311
571.728	1662.471
571.856	1676.681
571.985	1684.345
572.113	1680.975
572.241	1674.782
572.369	1692.706
572.497	1691.479
572.625	1690.311
572.753	1692.361
572.881	1702.782
573.010	1704.025
573.138	1729.983
573.266	1708.966
573.394	1719.462
573.522	1714.647
573.650	1723.487
573.778	1712.882
573.906	1716.445
574.035	1709.025
574.163	1730.261
574.291	1724.588
574.419	1732.529
574.547	1738.563
574.675	1741.345
574.803	1743.311
574.931	1734.218
575.060	1750.303
575.188	1744.076
575.316	1744.899
575.444	1743.437
575.572	1757.277
575.700	1739.471
575.828	1765.874
575.956	1755.597
576.085	1747.429
576.213	1772.622
576.341	1745.958
576.469	1767.958
576.597	1751.521
576.725	1761.647
576.853	1757.840
576.981	1754.832
577.110	1752.824
577.238	1776.521
577.366	1760.580
577.494	1756.706
577.622	1760.042
577.750	1775.992
577.878	1762.134
578.006	1786.555
578.135	1767.269
578.263	1775.076
578.391	1800.723
578.519	1775.605
578.647	1783.958
578.775	1784.891
578.903	1774.210
579.031	1800.941
579.160	1779.975
579.288	1769.277
579.416	1785.126
579.544	1804.882
579.672	1803.782
579.800	1799.378
579.928	1784.815
580.056	1796.479
580.185	1802.294
580.313	1803.193
580.441	1808.118
580.569	1805.672
580.697	1800.504
580.825	1816.521
580.953	1824.664
581.081	1822.118
581.210	1839.403
581.338	1848.773
581.466	1838.689
581.594	1855.084
581.722	1849.513
581.850	1841.235
581.978	1858.571
582.106	1865.370
582.235	1872.529
582.363	1861.924
582.491	1876.126
582.619	1870.689
582.747	1887.118
582.875	1875.824
583.003	1911.000
583.131	1906.748
583.260	1905.832
583.388	1926.092
583.516	1923.538
583.644	1920.706
583.772	1938.613
583.900	1953.294
584.028	1975.513
584.156	1937.185
584.285	1980.689
584.413	1965.723
584.541	1979.412
584.669	1980.437
584.797	1987.328
584.925	2004.849
585.053	2009.176
585.181	2000.496
585.310	2019.882
585.438	2023.235
585.566	2033.168
585.694	2054.176
585.822	2051.118
585.950	2039.269
586.078	2068.647
586.206	2071.252
586.335	2068.622
586.463	2091.210
586.591	2091.655
586.719	2103.571
586.847	2106.008
586.975	2109.580
587.103	2111.227
587.231	2109.252
587.360	2110.487
587.488	2124.891
587.616	2123.798
587.744	2152.160
587.872	2139.546
588.000	2146.471
588.128	2160.084
588.256	2151.798
588.385	2143.092
588.513	2150.252
588.641	2169.395
588.769	2189.252
588.897	2169.790
589.025	2168.412
589.153	2192.025
589.281	2174.555
589.410	2193.605
589.538	2204.286
589.666	2193.849
589.794	2186.319
589.922	2216.412
590.050	2226.723
590.178	2201.109
590.306	2206.647
590.435	2224.429
590.563	2214.050
590.691	2229.504
590.819	2244.160
590.947	2255.294
591.075	2240.975
591.203	2244.950
591.331	2252.983
591.460	2255.580
591.588	2265.571
591.716	2261.092
591.844	2259.303
591.972	2291.992
592.100	2278.714
592.228	2282.050
592.356	2274.655
592.485	2276.924
592.613	2283.303
592.741	2309.941
592.869	2288.445
592.997	2311.034
593.125	2311.647
593.253	2335.395
593.381	2341.017
593.510	2346.941
593.638	2342.563
593.766	2336.345
593.894	2344.277
594.022	2365.361
594.150	2372.529
594.278	2380.689
594.406	2364.445
594.535	2370.218
594.663	2376.546
594.791	2402.924
594.919	2396.370
595.047	2411.958
595.175	2424.252
595.303	2399.445
595.431	2425.899
595.560	2462.605
595.688	2440.790
595.816	2462.479
595.944	2455.681
596.072	2448.395
596.200	2467.252
596.328	2466.563
596.456	2461.101
596.585	2473.235
596.713	2491.782
596.841	2506.176
596.969	2503.908
597.097	2514.235
597.225	2522.571
597.353	2537.647
597.481	2543.176
597.610	2545.546
597.738	2579.462
597.866	2549.655
597.994	2570.168
598.122	2611.084
598.250	2598.042
598.378	2587.513
598.506	2588.681
598.635	2610.479
598.763	2606.353
598.891	2617.975
599.019	2634.555
599.147	2651.462
599.275	2629.454
599.403	2664.597
599.531	2666.571
599.660	2667.714
599.788	2668.084
599.916	2681.008
600.044	2722.353
600.172	2688.697
600.300	2693.353
600.428	2701.874
600.556	2714.655
600.685	2774.521
600.813	2736.773
600.941	2754.689
601.069	2749.916
601.197	2752.924
601.325	2776.807
601.453	2753.319
601.581	2803.714
601.710	2800.269
601.838	2801.765
601.966	2887.454
602.094	2901.176
602.222	2836.454
602.350	2828.613
602.478	2856.395
602.606	2912.084
602.735	2836.664
602.863	2917.555
602.991	2920.798
603.119	2887.471
603.247	2894.067
603.375	2911.882
603.503	2948.126
603.631	2963.353
603.760	2974.504
603.888	2987.084
604.016	2969.429
604.144	2964.899
604.272	2998.303
604.400	3020.067
604.528	3028.824
604.656	3045.563
604.785	3061.613
604.913	3108.941
605.041	3057.546
605.169	3094.546
605.297	3079.000
605.425	3093.000
605.553	3125.050
605.681	3098.807
605.810	3172.756
605.938	3158.277
606.066	3133.798
606.194	3161.462
606.322	3161.134
606.450	3172.378
606.578	3161.655
606.706	3200.874
606.835	3211.874
606.963	3256.681
607.091	3251.630
607.219	3217.966
607.347	3220.630
607.475	3260.689
607.603	3236.941
607.731	3237.168
607.860	3256.748
607.988	3269.050
608.116	3301.857
608.244	3265.328
608.372	3311.185
608.500	3301.773
608.628	3281.479
608.756	3300.950
608.885	3336.689
609.013	3298.471
609.141	3296.882
609.269	3282.815
609.397	3306.059
609.525	3330.143
609.653	3370.706
609.781	3322.521
609.910	3367.496
610.038	3426.773
610.166	3366.092
610.294	3348.983
610.422	3382.008
610.550	3351.941
610.678	3365.714
610.806	3374.261
610.935	3372.748
611.063	3393.252
611.191	3416.168
611.319	3405.168
611.447	3399.513
611.575	3396.782
611.703	3390.975
611.831	3427.403
611.960	3420.588
612.088	3431.370
612.216	3443.252
612.344	3433.034
612.472	3471.059
612.600	3454.168
612.728	3468.210
612.856	3440.269
612.985	3467.588
613.113	3503.513
613.241	3482.286
613.369	3497.109
613.497	3505.328
613.625	3503.563
613.753	3522.866
613.881	3548.647
614.010	3497.630
614.138	3542.655
614.266	3536.866
614.394	3570.168
614.522	3583.050
614.650	3566.672
614.778	3569.504
614.906	3562.739
615.035	3613.664
615.163	3572.748
615.291	3627.277
615.419	3599.151
615.547	3616.076
615.675	3629.597
615.803	3671.445
615.931	3662.950
616.060	3650.529
616.188	3684.714
616.316	3681.849
616.444	3656.294
616.572	3718.202
616.700	3724.496
616.828	3715.723
616.956	3752.613
617.085	3743.782
617.213	3718.076
617.341	3770.866
617.469	3845.294
617.597	3768.479
617.725	3767.924
617.853	3769.370
617.981	3790.000
618.110	3835.496
618.238	3836.714
618.366	3821.277
618.494	3837.328
618.622	3855.328
618.750	3921.992
618.878	3896.311
619.006	3883.975
619.135	3951.622
619.263	3922.891
619.391	3913.345
619.519	3962.193
619.647	4028.782
619.775	3998.025
619.903	4009.924
620.031	3991.185
620.160	4002.882
620.288	4057.807
620.416	4043.462
620.544	4079.168
620.672	4071.395
620.800	4106.647
620.928	4096.571
621.056	4135.714
621.185	4132.555
621.313	4123.613
621.441	4156.370
621.569	4145.361
621.697	4186.807
621.825	4201.983
621.953	4182.790
622.081	4235.647
622.210	4221.983
622.338	4254.966
622.466	4286.050
622.594	4281.630
622.722	4263.824
622.850	4331.798
622.978	4345.134
623.106	4360.252
623.235	4323.126
623.363	4345.832
623.491	4351.697
623.619	4385.950
623.747	4362.403
623.875	4402.151
624.003	4389.143
624.131	4409.815
624.260	4443.269
624.388	4391.151
624.516	4432.723
624.644	4441.067
624.772	4453.840
624.900	4431.378
625.028	4482.891
625.156	4478.765
625.285	4505.050
625.413	4518.143
625.541	4503.429
625.669	4532.126
625.797	4539.891
625.925	4527.378
626.053	4542.378
626.181	4525.697
626.310	4642.235
626.438	4543.782
626.566	4568.866
626.694	4587.731
626.822	4578.563
626.950	4600.311
627.078	4584.639
627.206	4612.134
627.335	4611.916
627.463	4598.361
627.591	4637.975
627.719	4715.303
627.847	4650.025
627.975	4657.471
628.103	4690.555
628.231	4667.815
628.360	4675.941
628.488	4702.008
628.616	4704.832
628.744	4719.303
628.872	4707.328
629.000	4727.487
629.128	4739.294
629.256	4715.328
629.385	4742.992
629.513	4746.983
629.641	4763.462
629.769	4795.395
629.897	4791.908
630.025	4765.672
630.153	4840.815
630.281	4799.311
630.410	4819.672
630.538	4826.992
630.666	4840.689
630.794	4832.697
630.922	4885.403
631.050	4836.008
631.178	4865.479
631.306	4862.378
631.435	4873.143
631.563	4886.580
631.691	4916.605
631.819	4963.992
631.947	4886.731
632.075	4881.790
632.203	4947.126
632.331	4899.588
632.460	4922.849
632.588	4935.345
632.716	4951.109
632.844	5004.933
632.972	4921.580
633.100	4922.849
633.228	4988.151
633.356	4969.773
633.485	4963.454
633.613	4979.563
633.741	5009.034
633.869	4991.655
633.997	4999.252
634.125	5044.790
634.253	5008.941
634.381	5028.790
634.510	5041.941
634.638	5046.706
634.766	5081.160
634.894	5046.496
635.022	5043.168
635.150	5048.000
635.278	5064.513
635.406	5063.412
635.535	5064.714
635.663	5098.244
635.791	5036.134
635.919	5056.807
636.047	5056.000
636.175	5088.773
636.303	5085.672
636.431	5101.849
636.560	5117.983
636.688	5080.303
636.816	5105.555
636.944	5104.286
637.072	5128.840
637.200	5144.933
637.328	5129.050
637.456	5129.739
637.585	5130.025
637.713	5172.336
637.841	5134.395
637.969	5164.286
638.097	5170.361
638.225	5188.487
638.353	5167.454
638.481	5162.521
638.610	5185.891
638.738	5178.034
638.866	5215.773
638.994	5220.866
639.122	5188.042
639.250	5204.546
639.378	5254.597
639.506	5245.101
639.635	5252.017
639.763	5209.714
639.891	5249.487
640.019	5285.395
640.147	5304.109
640.275	5255.168
640.403	5262.630
640.531	5328.992
640.660	5293.244
640.788	5372.773
640.916	5332.664
641.044	5315.227
641.172	5329.143
641.300	5353.050
641.428	5325.050
641.556	5372.193
641.685	5376.815
641.813	5377.521
641.941	5382.966
642.069	5397.807
642.197	5428.025
642.325	5435.252
642.453	5411.126
642.581	5523.050
642.710	5412.555
642.838	5451.395
642.966	5434.151
643.094	5470.244
643.222	5465.244
643.350	5484.857
643.478	5527.714
643.606	5483.756
643.735	5461.437
643.863	5511.017
643.991	5525.143
644.119	5533.983
644.247	5524.706
644.375	5521.555
644.503	5563.126
644.631	5558.739
644.760	5580.067
644.888	5589.739
645.016	5573.210
645.144	5603.773
645.272	5568.765
645.400	5614.286
645.528	5614.109
645.656	5618.294
645.785	5619.807
645.913	5672.748
646.041	5650.429
646.169	5691.059
646.297	5612.605
646.425	5659.882
646.553	5645.739
646.681	5612.672
646.810	5660.748
646.938	5621.874
647.066	5592.185
647.194	5690.277
647.322	5634.101
647.450	5626.681
647.578	5654.311
647.706	5645.815
647.835	5635.017
647.963	5686.613
648.091	5615.050
648.219	5672.210
648.347	5683.748
648.475	5668.286
648.603	5646.345
648.731	5593.395
648.860	5614.664
648.988	5608.244
649.116	5610.311
649.244	5581.664
649.372	5654.790
649.500	5617.933
649.628	5649.471
649.756	5593.445
649.885	5588.563
650.013	5563.126
650.141	5588.773
650.269	5565.966
650.397	5542.630
650.525	5515.739
650.653	5597.143
650.781	5543.370
650.910	5521.798
651.038	5501.689
651.166	5496.160
651.294	5496.328
651.422	5495.176
651.550	5468.882
651.678	5505.092
651.806	5493.571
651.935	5469.202
652.063	5483.420
652.191	5446.975
652.319	5420.185
652.447	5446.756
652.575	5423.613
652.703	5447.151
652.831	5450.445
652.960	5406.395
653.088	5424.361
653.216	5399.958
653.344	5401.874
653.472	5384.807
653.600	5381.983
653.728	5367.597
653.856	5383.765
653.985	5364.697
654.113	5351.546
654.241	5374.672
654.369	5366.050
654.497	5392.479
654.625	5368.958
654.753	5327.462
654.881	5361.126
655.010	5408.168
655.138	5344.319
655.266	5331.941
655.394	5328.866
655.522	5373.303
655.650	5277.790
655.778	5362.151
655.906	5312.151
656.035	5277.773
656.163	5294.420
656.291	5297.798
656.419	5323.311
656.547	5275.210
656.675	5291.067
