90-100-0_at_679.99nm_cut_at_1250.00Y_01.dat
24.01.2024
13:29:51
cut middle at Y: 1250.00
top cursor: 1310 down cursor: 1190 mean of: 120 lines , 2560 datapoints
wavelength(nm)	intensity[arb. units]
515.994	404.308
516.122	393.158
516.250	387.117
516.378	382.283
516.506	383.692
516.635	383.392
516.763	389.792
516.891	387.283
517.019	390.400
517.147	388.117
517.275	387.800
517.403	390.725
517.531	390.992
517.660	388.525
517.788	391.733
517.916	391.225
518.044	393.475
518.172	397.533
518.300	397.400
518.428	394.725
518.556	394.175
518.685	397.708
518.813	400.275
518.941	399.358
519.069	393.275
519.197	400.025
519.325	402.858
519.453	395.192
519.581	406.033
519.710	401.625
519.838	404.158
519.966	398.817
520.094	406.875
520.222	405.500
520.350	404.008
520.478	406.217
520.606	409.883
520.735	408.325
520.863	408.783
520.991	407.475
521.119	408.558
521.247	411.817
521.375	409.967
521.503	414.108
521.631	416.417
521.760	416.158
521.888	414.692
522.016	419.425
522.144	414.233
522.272	426.483
522.400	423.517
522.528	426.008
522.656	422.025
522.785	426.717
522.913	430.042
523.041	429.375
523.169	424.350
523.297	428.850
523.425	431.817
523.553	429.825
523.681	426.558
523.810	434.008
523.938	431.608
524.066	430.133
524.194	431.392
524.322	429.650
524.450	433.800
524.578	434.517
524.706	432.250
524.835	433.883
524.963	432.642
525.091	435.108
525.219	433.383
525.347	431.392
525.475	433.975
525.603	431.967
525.731	439.492
525.860	432.425
525.988	431.700
526.116	434.575
526.244	433.100
526.372	433.575
526.500	436.325
526.628	438.150
526.756	430.875
526.885	434.825
527.013	434.042
527.141	437.017
527.269	438.517
527.397	442.433
527.525	439.833
527.653	436.258
527.781	435.933
527.910	433.792
528.038	446.267
528.166	442.333
528.294	441.042
528.422	438.167
528.550	442.442
528.678	441.267
528.806	447.825
528.935	440.233
529.063	444.067
529.191	445.900
529.319	447.108
529.447	444.758
529.575	445.708
529.703	449.150
529.831	447.025
529.960	450.800
530.088	445.292
530.216	449.367
530.344	447.250
530.472	450.050
530.600	456.433
530.728	448.467
530.856	448.658
530.985	448.050
531.113	448.758
531.241	457.517
531.369	451.525
531.497	455.167
531.625	453.742
531.753	446.242
531.881	453.500
532.010	449.650
532.138	451.692
532.266	449.383
532.394	448.500
532.522	449.433
532.650	450.058
532.778	457.675
532.906	447.967
533.035	453.400
533.163	450.075
533.291	447.558
533.419	454.317
533.547	446.792
533.675	448.750
533.803	452.650
533.931	449.950
534.060	451.000
534.188	450.108
534.316	454.117
534.444	445.917
534.572	451.458
534.700	449.875
534.828	451.025
534.956	453.158
535.085	452.933
535.213	457.167
535.341	457.283
535.469	453.483
535.597	451.917
535.725	462.017
535.853	459.225
535.981	463.333
536.110	460.550
536.238	461.858
536.366	470.517
536.494	459.808
536.622	467.142
536.750	460.950
536.878	468.692
537.006	470.033
537.135	472.100
537.263	467.275
537.391	468.708
537.519	468.175
537.647	475.275
537.775	475.250
537.903	478.433
538.031	473.242
538.160	468.650
538.288	477.517
538.416	477.975
538.544	472.017
538.672	477.067
538.800	483.550
538.928	482.442
539.056	479.567
539.185	485.292
539.313	477.100
539.441	477.275
539.569	485.633
539.697	484.475
539.825	486.008
539.953	485.442
540.081	479.475
540.210	487.642
540.338	483.183
540.466	487.867
540.594	487.700
540.722	476.050
540.850	486.233
540.978	486.267
541.106	483.800
541.235	493.617
541.363	488.100
541.491	487.092
541.619	485.158
541.747	489.217
541.875	490.525
542.003	492.025
542.131	487.683
542.260	489.767
542.388	487.883
542.516	492.675
542.644	488.025
542.772	492.467
542.900	490.192
543.028	492.650
543.156	486.833
543.285	491.750
543.413	488.842
543.541	495.592
543.669	496.275
543.797	496.233
543.925	493.667
544.053	496.742
544.181	498.542
544.310	489.908
544.438	493.633
544.566	499.358
544.694	493.175
544.822	493.042
544.950	492.208
545.078	494.275
545.206	496.292
545.335	498.525
545.463	493.617
545.591	498.242
545.719	498.183
545.847	494.567
545.975	494.042
546.103	493.825
546.231	489.450
546.360	498.742
546.488	492.967
546.616	494.267
546.744	497.150
546.872	493.342
547.000	495.533
547.128	496.158
547.256	496.475
547.385	494.042
547.513	494.575
547.641	495.183
547.769	496.250
547.897	490.117
548.025	500.283
548.153	495.950
548.281	490.442
548.410	491.500
548.538	494.075
548.666	490.142
548.794	490.792
548.922	493.183
549.050	495.008
549.178	492.075
549.306	494.533
549.435	494.342
549.563	490.775
549.691	494.967
549.819	496.933
549.947	497.942
550.075	494.408
550.203	496.658
550.331	492.950
550.460	501.892
550.588	493.700
550.716	503.208
550.844	492.117
550.972	492.925
551.100	495.250
551.228	503.258
551.356	495.808
551.485	502.625
551.613	497.667
551.741	498.508
551.869	494.450
551.997	495.100
552.125	492.317
552.253	494.300
552.381	490.242
552.510	487.267
552.638	494.483
552.766	497.483
552.894	487.608
553.022	489.067
553.150	483.817
553.278	491.742
553.406	489.817
553.535	484.933
553.663	488.425
553.791	484.767
553.919	487.467
554.047	491.067
554.175	486.758
554.303	491.950
554.431	484.442
554.560	487.817
554.688	488.942
554.816	482.083
554.944	482.675
555.072	485.067
555.200	488.617
555.328	480.433
555.456	486.100
555.585	485.542
555.713	484.808
555.841	483.575
555.969	486.950
556.097	490.225
556.225	481.900
556.353	485.842
556.481	483.567
556.610	485.342
556.738	487.025
556.866	484.758
556.994	488.608
557.122	484.958
557.250	489.017
557.378	488.167
557.506	482.000
557.635	486.683
557.763	484.683
557.891	490.925
558.019	487.983
558.147	488.583
558.275	484.833
558.403	488.700
558.531	489.642
558.660	488.125
558.788	487.000
558.916	488.508
559.044	487.642
559.172	487.242
559.300	492.308
559.428	490.308
559.556	491.033
559.685	488.708
559.813	485.175
559.941	489.233
560.069	489.458
560.197	489.025
560.325	492.300
560.453	485.933
560.581	490.800
560.710	489.433
560.838	489.358
560.966	489.817
561.094	490.333
561.222	484.842
561.350	486.167
561.478	484.642
561.606	485.542
561.735	481.408
561.863	485.700
561.991	487.125
562.119	480.025
562.247	478.300
562.375	488.475
562.503	481.567
562.631	483.742
562.760	484.825
562.888	489.267
563.016	484.667
563.144	485.275
563.272	481.025
563.400	473.600
563.528	480.267
563.656	485.800
563.785	490.483
563.913	483.883
564.041	477.592
564.169	482.017
564.297	480.542
564.425	477.708
564.553	487.233
564.681	481.675
564.810	480.175
564.938	480.317
565.066	481.092
565.194	486.342
565.322	483.800
565.450	479.942
565.578	488.617
565.706	480.067
565.835	488.800
565.963	482.400
566.091	477.808
566.219	487.867
566.347	486.308
566.475	479.775
566.603	490.425
566.731	487.858
566.860	483.825
566.988	486.558
567.116	490.400
567.244	487.883
567.372	490.650
567.500	491.050
567.628	491.375
567.756	492.275
567.885	497.617
568.013	495.950
568.141	495.083
568.269	491.250
568.397	494.008
568.525	493.067
568.653	497.283
568.781	500.875
568.910	496.175
569.038	500.700
569.166	494.675
569.294	500.267
569.422	495.975
569.550	494.658
569.678	505.867
569.806	502.142
569.935	505.350
570.063	497.317
570.191	505.792
570.319	502.317
570.447	498.767
570.575	503.117
570.703	502.758
570.831	505.192
570.960	506.100
571.088	507.092
571.216	505.417
571.344	503.483
571.472	504.483
571.600	509.958
571.728	506.125
571.856	505.167
571.985	506.333
572.113	509.208
572.241	509.317
572.369	506.675
572.497	507.808
572.625	504.900
572.753	510.492
572.881	509.292
573.010	511.683
573.138	513.417
573.266	513.917
573.394	512.750
573.522	511.542
573.650	506.883
573.778	506.617
573.906	509.933
574.035	511.092
574.163	515.100
574.291	512.050
574.419	512.725
574.547	514.875
574.675	517.700
574.803	516.517
574.931	510.100
575.060	515.892
575.188	513.333
575.316	513.742
575.444	510.025
575.572	521.067
575.700	511.842
575.828	519.850
575.956	517.808
576.085	518.025
576.213	517.758
576.341	517.108
576.469	515.742
576.597	513.592
576.725	512.750
576.853	518.017
576.981	517.167
577.110	515.317
577.238	523.017
577.366	515.783
577.494	511.900
577.622	522.167
577.750	512.242
577.878	517.283
578.006	518.458
578.135	516.292
578.263	510.592
578.391	519.300
578.519	518.083
578.647	519.308
578.775	516.267
578.903	514.583
579.031	521.333
579.160	517.083
579.288	516.083
579.416	518.758
579.544	513.508
579.672	517.925
579.800	514.350
579.928	522.208
580.056	513.617
580.185	517.583
580.313	520.808
580.441	521.342
580.569	511.700
580.697	516.658
580.825	522.925
580.953	523.117
581.081	522.242
581.210	525.183
581.338	530.833
581.466	525.025
581.594	529.192
581.722	524.583
581.850	521.908
581.978	527.083
582.106	529.508
582.235	530.625
582.363	527.092
582.491	535.692
582.619	530.217
582.747	532.250
582.875	533.158
583.003	535.350
583.131	535.933
583.260	532.150
583.388	538.392
583.516	536.583
583.644	540.817
583.772	541.067
583.900	546.225
584.028	541.867
584.156	542.883
584.285	545.950
584.413	545.317
584.541	552.225
584.669	547.825
584.797	548.183
584.925	542.758
585.053	550.883
585.181	554.758
585.310	555.258
585.438	553.242
585.566	555.133
585.694	561.717
585.822	560.433
585.950	558.975
586.078	561.192
586.206	563.800
586.335	563.133
586.463	563.108
586.591	572.425
586.719	564.408
586.847	568.208
586.975	570.700
587.103	573.683
587.231	567.900
587.360	570.175
587.488	569.867
587.616	572.250
587.744	576.200
587.872	573.325
588.000	574.267
588.128	580.083
588.256	579.708
588.385	573.317
588.513	568.208
588.641	572.458
588.769	580.442
588.897	572.258
589.025	575.125
589.153	576.150
589.281	577.508
589.410	575.692
589.538	577.483
589.666	580.100
589.794	576.642
589.922	580.450
590.050	581.375
590.178	576.692
590.306	577.033
590.435	577.208
590.563	578.208
590.691	581.192
590.819	573.892
590.947	588.092
591.075	575.625
591.203	575.092
591.331	582.208
591.460	582.150
591.588	578.892
591.716	586.342
591.844	584.517
591.972	586.525
592.100	581.100
592.228	586.208
592.356	588.000
592.485	581.967
592.613	582.692
592.741	586.583
592.869	589.225
592.997	591.833
593.125	593.317
593.253	592.817
593.381	585.067
593.510	589.000
593.638	588.400
593.766	588.283
593.894	590.233
594.022	592.283
594.150	584.833
594.278	596.400
594.406	592.567
594.535	600.100
594.663	605.742
594.791	598.383
594.919	594.733
595.047	604.750
595.175	597.567
595.303	599.117
595.431	603.683
595.560	611.275
595.688	605.967
595.816	600.633
595.944	605.917
596.072	610.117
596.200	611.325
596.328	609.842
596.456	616.650
596.585	613.308
596.713	615.700
596.841	609.417
596.969	609.600
597.097	618.942
597.225	612.650
597.353	616.933
597.481	615.583
597.610	619.567
597.738	617.325
597.866	609.933
597.994	626.000
598.122	621.333
598.250	624.375
598.378	624.700
598.506	627.200
598.635	619.892
598.763	628.242
598.891	618.525
599.019	629.117
599.147	620.617
599.275	624.792
599.403	622.833
599.531	625.233
599.660	629.842
599.788	627.675
599.916	621.633
600.044	625.842
600.172	636.133
600.300	633.617
600.428	631.875
600.556	630.858
600.685	636.517
600.813	639.067
600.941	642.775
601.069	640.492
601.197	637.600
601.325	635.217
601.453	639.025
601.581	646.392
601.710	651.500
601.838	649.683
601.966	645.183
602.094	645.842
602.222	643.050
602.350	651.975
602.478	652.983
602.606	653.683
602.735	652.350
602.863	657.200
602.991	660.108
603.119	661.883
603.247	665.800
603.375	661.600
603.503	657.408
603.631	662.317
603.760	664.425
603.888	668.458
604.016	664.383
604.144	669.858
604.272	666.275
604.400	667.825
604.528	666.917
604.656	671.900
604.785	675.200
604.913	685.342
605.041	678.125
605.169	677.417
605.297	676.892
605.425	677.092
605.553	682.650
605.681	679.933
605.810	684.600
605.938	685.150
606.066	684.308
606.194	683.358
606.322	684.083
606.450	686.833
606.578	686.825
606.706	690.900
606.835	695.983
606.963	686.867
607.091	690.058
607.219	684.350
607.347	684.358
607.475	700.258
607.603	695.458
607.731	695.542
607.860	694.842
607.988	691.975
608.116	690.925
608.244	689.483
608.372	702.892
608.500	694.467
608.628	702.200
608.756	703.325
608.885	703.175
609.013	702.542
609.141	695.650
609.269	702.208
609.397	701.158
609.525	695.608
609.653	707.608
609.781	706.050
609.910	700.950
610.038	696.525
610.166	710.983
610.294	700.083
610.422	713.242
610.550	702.808
610.678	703.825
610.806	710.167
610.935	710.075
611.063	708.617
611.191	704.283
611.319	700.883
611.447	714.317
611.575	713.317
611.703	705.650
611.831	713.817
611.960	713.883
612.088	705.608
612.216	713.733
612.344	714.608
612.472	705.917
612.600	719.867
612.728	714.967
612.856	713.583
612.985	712.292
613.113	714.417
613.241	717.033
613.369	718.817
613.497	713.817
613.625	715.592
613.753	712.992
613.881	712.592
614.010	720.892
614.138	714.750
614.266	717.342
614.394	716.158
614.522	713.250
614.650	724.058
614.778	719.100
614.906	730.308
615.035	720.542
615.163	720.992
615.291	725.025
615.419	721.617
615.547	724.825
615.675	728.067
615.803	729.708
615.931	731.142
616.060	735.158
616.188	732.750
616.316	724.467
616.444	728.692
616.572	735.425
616.700	732.425
616.828	740.742
616.956	742.583
617.085	742.458
617.213	741.100
617.341	737.617
617.469	745.600
617.597	750.283
617.725	740.100
617.853	740.167
617.981	742.033
618.110	756.433
618.238	750.017
618.366	753.125
618.494	756.150
618.622	749.275
618.750	760.850
618.878	759.000
619.006	757.708
619.135	765.267
619.263	766.342
619.391	764.192
619.519	771.217
619.647	775.767
619.775	775.175
619.903	777.608
620.031	775.175
620.160	775.458
620.288	775.783
620.416	790.233
620.544	783.358
620.672	778.667
620.800	785.958
620.928	795.367
621.056	788.175
621.185	786.933
621.313	787.658
621.441	796.992
621.569	798.900
621.697	806.433
621.825	808.792
621.953	806.375
622.081	810.583
622.210	799.992
622.338	806.908
622.466	813.258
622.594	814.383
622.722	809.592
622.850	816.908
622.978	823.350
623.106	818.500
623.235	825.042
623.363	824.358
623.491	825.250
623.619	823.067
623.747	825.383
623.875	827.308
624.003	833.283
624.131	833.592
624.260	824.125
624.388	829.208
624.516	836.475
624.644	829.308
624.772	826.408
624.900	832.158
625.028	838.925
625.156	850.383
625.285	844.033
625.413	840.442
625.541	841.975
625.669	852.850
625.797	842.275
625.925	845.950
626.053	849.117
626.181	852.375
626.310	851.600
626.438	853.625
626.566	850.708
626.694	848.217
626.822	849.942
626.950	855.300
627.078	851.533
627.206	857.192
627.335	863.333
627.463	861.242
627.591	862.683
627.719	856.008
627.847	862.917
627.975	871.208
628.103	858.817
628.231	865.975
628.360	862.042
628.488	861.450
628.616	870.025
628.744	865.833
628.872	877.083
629.000	878.608
629.128	872.508
629.256	882.333
629.385	885.767
629.513	873.792
629.641	885.500
629.769	880.800
629.897	881.525
630.025	876.617
630.153	889.408
630.281	884.167
630.410	877.958
630.538	893.508
630.666	894.183
630.794	887.842
630.922	891.442
631.050	890.325
631.178	895.425
631.306	893.617
631.435	900.483
631.563	904.292
631.691	899.900
631.819	908.033
631.947	904.717
632.075	904.692
632.203	901.575
632.331	913.750
632.460	902.658
632.588	912.075
632.716	912.092
632.844	908.158
632.972	912.025
633.100	919.933
633.228	919.342
633.356	914.950
633.485	914.075
633.613	922.550
633.741	920.817
633.869	923.958
633.997	922.967
634.125	928.975
634.253	910.133
634.381	911.917
634.510	923.350
634.638	922.525
634.766	925.825
634.894	921.642
635.022	925.533
635.150	931.550
635.278	943.783
635.406	925.850
635.535	936.075
635.663	942.333
635.791	926.075
635.919	939.467
636.047	940.958
636.175	929.117
636.303	941.142
636.431	947.392
636.560	945.050
636.688	950.117
636.816	945.017
636.944	947.142
637.072	945.442
637.200	945.658
637.328	947.542
637.456	957.400
637.585	946.992
637.713	952.558
637.841	947.250
637.969	956.258
638.097	957.400
638.225	963.958
638.353	970.575
638.481	963.567
638.610	965.542
638.738	965.958
638.866	962.675
638.994	968.333
639.122	974.542
639.250	984.517
639.378	976.875
639.506	976.333
639.635	977.283
639.763	976.083
639.891	981.717
640.019	988.083
640.147	983.142
640.275	987.483
640.403	987.417
640.531	986.492
640.660	991.992
640.788	996.100
640.916	985.908
641.044	997.250
641.172	1000.650
641.300	1005.550
641.428	1003.858
641.556	1009.083
641.685	1001.992
641.813	1013.417
641.941	1015.658
642.069	1017.717
642.197	1018.092
642.325	1012.108
642.453	1023.183
642.581	1026.025
642.710	1024.008
642.838	1030.167
642.966	1023.658
643.094	1026.833
643.222	1027.483
643.350	1027.667
643.478	1039.675
643.606	1042.967
643.735	1038.067
643.863	1033.417
643.991	1046.925
644.119	1056.750
644.247	1050.425
644.375	1049.867
644.503	1057.017
644.631	1063.842
644.760	1064.542
644.888	1068.158
645.016	1065.450
645.144	1074.767
645.272	1068.050
645.400	1065.292
645.528	1072.142
645.656	1066.983
645.785	1078.608
645.913	1078.125
646.041	1085.533
646.169	1069.075
646.297	1079.800
646.425	1081.367
646.553	1082.350
646.681	1085.767
646.810	1090.250
646.938	1091.558
647.066	1087.750
647.194	1096.192
647.322	1089.250
647.450	1097.975
647.578	1104.975
647.706	1097.392
647.835	1104.592
647.963	1096.675
648.091	1102.050
648.219	1101.042
648.347	1106.100
648.475	1107.950
648.603	1115.175
648.731	1108.708
648.860	1103.317
648.988	1120.175
649.116	1111.750
649.244	1116.467
649.372	1099.225
649.500	1115.792
649.628	1115.067
649.756	1103.875
649.885	1111.308
650.013	1109.492
650.141	1106.175
650.269	1110.133
650.397	1114.300
650.525	1109.533
650.653	1125.308
650.781	1108.308
650.910	1110.042
651.038	1104.742
651.166	1114.467
651.294	1116.667
651.422	1104.833
651.550	1109.608
651.678	1110.033
651.806	1108.117
651.935	1113.817
652.063	1102.458
652.191	1105.183
652.319	1109.108
652.447	1103.425
652.575	1103.900
652.703	1101.808
652.831	1099.950
652.960	1109.108
653.088	1097.100
653.216	1099.133
653.344	1105.000
653.472	1115.233
653.600	1101.858
653.728	1110.450
653.856	1099.625
653.985	1120.683
654.113	1112.492
654.241	1107.642
654.369	1103.225
654.497	1111.650
654.625	1106.875
654.753	1105.608
654.881	1103.958
655.010	1113.617
655.138	1107.542
655.266	1105.225
655.394	1106.492
655.522	1108.267
655.650	1104.733
655.778	1114.817
655.906	1115.533
656.035	1117.792
656.163	1109.000
656.291	1119.342
656.419	1126.383
656.547	1126.892
656.675	1110.167
656.803	1124.858
656.931	1112.542
657.060	1115.592
657.188	1124.192
657.316	1127.350
657.444	1126.758
657.572	1130.208
657.700	1120.283
657.828	1129.350
657.956	1126.433
658.085	1138.950
658.213	1127.708
658.341	1129.667
658.469	1129.275
658.597	1142.533
658.725	1136.917
658.853	1128.408
658.981	1127.383
659.110	1144.817
659.238	1135.008
659.366	1135.108
659.494	1137.858
659.622	1131.433
659.750	1149.267
659.878	1142.575
660.006	1139.817
660.135	1146.283
660.263	1139.317
660.391	1136.133
660.519	1147.625
660.647	1139.325
660.775	1147.100
660.903	1147.625
661.031	1142.808
661.160	1156.492
661.288	1149.975
661.416	1163.642
661.544	1140.142
661.672	1142.400
661.800	1159.042
661.928	1156.117
662.056	1144.167
662.185	1155.317
662.313	1151.967
662.441	1163.925
662.569	1158.267
662.697	1164.192
662.825	1149.967
662.953	1163.150
663.081	1154.383
663.210	1167.508
663.338	1167.875
663.466	1163.442
663.594	1160.917
663.722	1158.467
