90-120-0_at_679.99nm_cut_at_1250.00Y_01.dat
24.01.2024
13:32:07
cut middle at Y: 1250.00
top cursor: 1310 down cursor: 1190 mean of: 120 lines , 2560 datapoints
wavelength(nm)	intensity[arb. units]
515.994	270.217
516.122	262.325
516.250	258.908
516.378	254.608
516.506	254.942
516.635	253.225
516.763	264.150
516.891	260.942
517.019	257.658
517.147	258.733
517.275	260.392
517.403	260.592
517.531	260.750
517.660	260.183
517.788	258.242
517.916	265.458
518.044	263.250
518.172	262.000
518.300	265.575
518.428	259.217
518.556	261.533
518.685	263.800
518.813	267.292
518.941	265.217
519.069	264.433
519.197	264.483
519.325	269.583
519.453	265.333
519.581	269.050
519.710	268.342
519.838	269.242
519.966	268.417
520.094	270.658
520.222	268.975
520.350	267.967
520.478	271.700
520.606	272.833
520.735	270.833
520.863	275.075
520.991	276.600
521.119	273.300
521.247	277.233
521.375	274.583
521.503	277.200
521.631	276.100
521.760	275.092
521.888	276.492
522.016	279.508
522.144	280.833
522.272	281.758
522.400	283.700
522.528	284.500
522.656	281.908
522.785	285.442
522.913	285.067
523.041	280.717
523.169	278.317
523.297	285.333
523.425	284.617
523.553	286.008
523.681	285.267
523.810	284.742
523.938	289.642
524.066	287.208
524.194	291.583
524.322	289.167
524.450	284.350
524.578	285.783
524.706	288.775
524.835	289.400
524.963	287.175
525.091	287.967
525.219	284.867
525.347	285.442
525.475	286.325
525.603	284.717
525.731	286.467
525.860	291.892
525.988	289.450
526.116	289.092
526.244	287.275
526.372	288.808
526.500	290.950
526.628	289.925
526.756	286.983
526.885	291.033
527.013	287.483
527.141	290.425
527.269	290.633
527.397	288.358
527.525	292.558
527.653	288.058
527.781	287.700
527.910	291.733
528.038	289.758
528.166	295.900
528.294	292.808
528.422	294.233
528.550	292.392
528.678	292.225
528.806	296.550
528.935	297.975
529.063	296.567
529.191	299.308
529.319	300.267
529.447	299.883
529.575	297.158
529.703	300.917
529.831	300.608
529.960	300.133
530.088	298.992
530.216	303.025
530.344	295.725
530.472	298.617
530.600	298.525
530.728	301.442
530.856	300.892
530.985	298.775
531.113	299.808
531.241	301.558
531.369	302.883
531.497	300.258
531.625	300.067
531.753	300.183
531.881	303.325
532.010	299.933
532.138	299.092
532.266	299.892
532.394	298.200
532.522	296.925
532.650	303.125
532.778	303.158
532.906	302.375
533.035	302.258
533.163	297.692
533.291	300.617
533.419	300.367
533.547	300.550
533.675	299.442
533.803	298.750
533.931	299.942
534.060	300.542
534.188	302.650
534.316	298.233
534.444	299.292
534.572	305.983
534.700	304.117
534.828	306.058
534.956	301.833
535.085	306.200
535.213	304.025
535.341	305.092
535.469	308.583
535.597	310.100
535.725	309.708
535.853	306.992
535.981	306.558
536.110	310.542
536.238	307.683
536.366	313.558
536.494	310.550
536.622	311.733
536.750	313.533
536.878	317.292
537.006	314.392
537.135	314.717
537.263	316.558
537.391	314.992
537.519	315.458
537.647	323.450
537.775	318.042
537.903	315.167
538.031	318.792
538.160	315.858
538.288	320.783
538.416	322.933
538.544	317.658
538.672	320.192
538.800	323.100
538.928	320.092
539.056	320.350
539.185	320.792
539.313	324.417
539.441	325.750
539.569	322.817
539.697	326.400
539.825	325.875
539.953	322.183
540.081	321.567
540.210	321.358
540.338	323.025
540.466	325.475
540.594	323.942
540.722	323.158
540.850	325.675
540.978	323.658
541.106	323.867
541.235	326.592
541.363	328.675
541.491	327.167
541.619	322.242
541.747	327.383
541.875	324.958
542.003	326.267
542.131	323.517
542.260	332.383
542.388	325.750
542.516	324.933
542.644	327.717
542.772	325.433
542.900	329.150
543.028	326.825
543.156	327.200
543.285	331.642
543.413	324.175
543.541	326.442
543.669	331.200
543.797	331.983
543.925	327.508
544.053	328.433
544.181	332.650
544.310	329.325
544.438	329.958
544.566	328.958
544.694	330.450
544.822	329.300
544.950	332.100
545.078	330.725
545.206	329.200
545.335	325.625
545.463	327.242
545.591	334.883
545.719	325.233
545.847	326.892
545.975	330.383
546.103	331.250
546.231	331.750
546.360	330.008
546.488	329.658
546.616	327.800
546.744	330.258
546.872	327.000
547.000	328.767
547.128	334.500
547.256	326.717
547.385	329.150
547.513	328.533
547.641	328.417
547.769	328.350
547.897	330.325
548.025	331.250
548.153	333.142
548.281	324.533
548.410	330.425
548.538	330.550
548.666	332.917
548.794	326.692
548.922	332.392
549.050	335.417
549.178	334.025
549.306	333.858
549.435	337.917
549.563	332.258
549.691	333.575
549.819	334.050
549.947	333.400
550.075	330.958
550.203	336.842
550.331	332.575
550.460	333.667
550.588	336.992
550.716	333.233
550.844	334.417
550.972	333.433
551.100	333.092
551.228	334.125
551.356	327.092
551.485	330.833
551.613	331.683
551.741	331.158
551.869	331.350
551.997	326.617
552.125	330.408
552.253	331.117
552.381	327.325
552.510	326.742
552.638	326.183
552.766	327.875
552.894	328.042
553.022	332.258
553.150	327.558
553.278	329.717
553.406	329.408
553.535	329.025
553.663	327.658
553.791	325.308
553.919	324.308
554.047	328.883
554.175	325.525
554.303	322.042
554.431	323.633
554.560	327.567
554.688	327.342
554.816	330.317
554.944	326.475
555.072	326.617
555.200	324.725
555.328	324.367
555.456	323.908
555.585	327.517
555.713	327.208
555.841	329.433
555.969	328.825
556.097	326.242
556.225	324.942
556.353	331.308
556.481	324.892
556.610	325.383
556.738	328.500
556.866	324.775
556.994	326.250
557.122	325.158
557.250	329.542
557.378	330.758
557.506	329.925
557.635	325.817
557.763	327.017
557.891	329.433
558.019	325.850
558.147	324.125
558.275	332.492
558.403	332.808
558.531	326.892
558.660	330.650
558.788	329.642
558.916	329.650
559.044	325.192
559.172	327.142
559.300	329.408
559.428	328.467
559.556	327.967
559.685	331.533
559.813	325.967
559.941	327.542
560.069	331.233
560.197	325.900
560.325	325.808
560.453	329.433
560.581	328.242
560.710	324.933
560.838	327.283
560.966	327.792
561.094	328.692
561.222	325.417
561.350	326.333
561.478	325.583
561.606	327.333
561.735	325.942
561.863	322.983
561.991	327.267
562.119	327.683
562.247	325.975
562.375	327.858
562.503	325.308
562.631	324.608
562.760	319.792
562.888	325.008
563.016	325.242
563.144	324.892
563.272	323.492
563.400	322.900
563.528	322.133
563.656	321.758
563.785	323.067
563.913	323.958
564.041	323.400
564.169	325.983
564.297	324.242
564.425	323.992
564.553	327.458
564.681	323.133
564.810	319.825
564.938	326.708
565.066	324.692
565.194	332.242
565.322	327.892
565.450	325.517
565.578	328.108
565.706	325.317
565.835	325.592
565.963	325.667
566.091	326.242
566.219	328.675
566.347	325.808
566.475	326.742
566.603	330.575
566.731	327.200
566.860	325.142
566.988	329.250
567.116	332.417
567.244	330.433
567.372	326.775
567.500	332.008
567.628	328.292
567.756	335.025
567.885	331.842
568.013	332.117
568.141	333.917
568.269	330.150
568.397	329.683
568.525	331.758
568.653	334.108
568.781	335.108
568.910	339.950
569.038	335.658
569.166	329.542
569.294	335.275
569.422	339.200
569.550	332.642
569.678	334.867
569.806	336.350
569.935	336.933
570.063	339.208
570.191	338.958
570.319	335.475
570.447	336.925
570.575	338.258
570.703	339.992
570.831	339.633
570.960	336.025
571.088	340.867
571.216	340.900
571.344	335.442
571.472	337.592
571.600	342.642
571.728	341.233
571.856	339.592
571.985	338.850
572.113	340.550
572.241	337.442
572.369	342.508
572.497	338.983
572.625	338.575
572.753	337.317
572.881	342.492
573.010	341.058
573.138	341.167
573.266	349.458
573.394	342.875
573.522	342.700
573.650	347.050
573.778	341.708
573.906	346.433
574.035	341.575
574.163	339.892
574.291	344.417
574.419	341.517
574.547	343.825
574.675	342.825
574.803	344.042
574.931	342.292
575.060	345.467
575.188	347.158
575.316	343.100
575.444	343.825
575.572	342.683
575.700	342.025
575.828	347.783
575.956	340.892
576.085	347.167
576.213	344.175
576.341	339.275
576.469	340.542
576.597	345.858
576.725	342.075
576.853	340.242
576.981	340.967
577.110	339.342
577.238	342.908
577.366	344.167
577.494	338.225
577.622	337.392
577.750	343.892
577.878	341.992
578.006	340.792
578.135	342.433
578.263	341.625
578.391	344.767
578.519	341.575
578.647	340.433
578.775	342.308
578.903	343.508
579.031	342.458
579.160	342.725
579.288	344.317
579.416	342.425
579.544	342.642
579.672	343.858
579.800	344.267
579.928	344.267
580.056	338.300
580.185	340.583
580.313	346.042
580.441	345.783
580.569	342.250
580.697	345.800
580.825	345.033
580.953	343.833
581.081	349.517
581.210	346.942
581.338	349.883
581.466	350.075
581.594	347.875
581.722	346.558
581.850	345.292
581.978	347.917
582.106	345.533
582.235	350.283
582.363	348.017
582.491	350.867
582.619	351.100
582.747	350.950
582.875	353.750
583.003	353.958
583.131	352.208
583.260	353.817
583.388	352.733
583.516	354.467
583.644	355.333
583.772	362.400
583.900	358.892
584.028	359.775
584.156	357.975
584.285	358.742
584.413	361.858
584.541	359.783
584.669	358.467
584.797	358.192
584.925	360.592
585.053	364.517
585.181	364.017
585.310	362.300
585.438	367.842
585.566	364.017
585.694	369.300
585.822	361.017
585.950	362.500
586.078	369.850
586.206	368.150
586.335	365.017
586.463	366.883
586.591	368.650
586.719	367.542
586.847	367.417
586.975	370.042
587.103	368.508
587.231	368.158
587.360	373.342
587.488	372.792
587.616	374.117
587.744	372.050
587.872	371.625
588.000	369.508
588.128	376.742
588.256	373.242
588.385	369.600
588.513	372.733
588.641	369.283
588.769	369.233
588.897	368.325
589.025	370.108
589.153	372.467
589.281	365.583
589.410	373.875
589.538	371.383
589.666	376.983
589.794	371.658
589.922	372.192
590.050	376.633
590.178	369.800
590.306	372.133
590.435	372.600
590.563	368.192
590.691	368.883
590.819	373.067
590.947	374.733
591.075	371.933
591.203	372.283
591.331	375.875
591.460	376.250
591.588	370.892
591.716	376.267
591.844	375.683
591.972	377.792
592.100	373.292
592.228	375.417
592.356	378.775
592.485	375.208
592.613	375.100
592.741	373.842
592.869	374.292
592.997	377.683
593.125	379.850
593.253	378.508
593.381	378.033
593.510	374.308
593.638	374.892
593.766	373.842
593.894	381.542
594.022	381.892
594.150	380.825
594.278	384.600
594.406	383.033
594.535	380.517
594.663	380.300
594.791	384.158
594.919	382.850
595.047	386.025
595.175	384.767
595.303	375.117
595.431	382.158
595.560	388.217
595.688	384.200
595.816	384.150
595.944	384.633
596.072	388.408
596.200	380.358
596.328	382.492
596.456	389.083
596.585	388.192
596.713	389.467
596.841	385.542
596.969	387.850
597.097	391.075
597.225	392.892
597.353	392.625
597.481	385.842
597.610	393.250
597.738	388.050
597.866	388.283
597.994	390.908
598.122	389.625
598.250	383.425
598.378	388.200
598.506	394.617
598.635	389.108
598.763	394.358
598.891	393.300
599.019	390.408
599.147	391.142
599.275	391.200
599.403	389.258
599.531	392.067
599.660	393.342
599.788	391.108
599.916	390.767
600.044	386.842
600.172	393.383
600.300	390.442
600.428	391.558
600.556	389.417
600.685	396.575
600.813	398.542
600.941	399.558
601.069	396.667
601.197	398.392
601.325	394.708
601.453	393.992
601.581	396.142
601.710	399.850
601.838	402.217
601.966	397.225
602.094	400.667
602.222	396.683
602.350	395.408
602.478	398.333
602.606	404.308
602.735	401.750
602.863	404.792
602.991	402.308
603.119	409.350
603.247	406.033
603.375	403.742
603.503	398.583
603.631	403.867
603.760	406.608
603.888	411.075
604.016	403.350
604.144	408.458
604.272	407.817
604.400	402.750
604.528	407.350
604.656	409.583
604.785	406.075
604.913	413.258
605.041	409.908
605.169	411.083
605.297	408.242
605.425	409.517
605.553	415.183
605.681	407.983
605.810	410.908
605.938	411.917
606.066	410.442
606.194	409.142
606.322	409.008
606.450	409.642
606.578	410.942
606.706	410.325
606.835	415.275
606.963	416.433
607.091	409.325
607.219	416.875
607.347	407.692
607.475	417.842
607.603	416.250
607.731	410.933
607.860	412.892
607.988	411.767
608.116	413.383
608.244	412.183
608.372	411.408
608.500	414.433
608.628	410.117
608.756	412.292
608.885	409.467
609.013	415.742
609.141	407.558
609.269	408.317
609.397	414.475
609.525	413.433
609.653	410.458
609.781	409.700
609.910	410.292
610.038	407.458
610.166	412.800
610.294	415.950
610.422	417.367
610.550	413.633
610.678	410.808
610.806	409.375
610.935	415.575
611.063	410.867
611.191	412.267
611.319	412.742
611.447	412.575
611.575	409.692
611.703	410.075
611.831	413.517
611.960	409.300
612.088	412.950
612.216	415.283
612.344	414.233
612.472	409.667
612.600	411.108
612.728	413.992
612.856	412.083
612.985	407.833
613.113	416.683
613.241	416.758
613.369	411.783
613.497	416.133
613.625	413.642
613.753	412.050
613.881	408.700
614.010	406.975
614.138	407.100
614.266	411.933
614.394	406.158
614.522	413.800
614.650	414.583
614.778	409.700
614.906	414.642
615.035	414.917
615.163	409.858
615.291	414.692
615.419	413.342
615.547	410.433
615.675	414.467
615.803	410.917
615.931	416.500
616.060	416.308
616.188	411.900
616.316	415.150
616.444	414.083
616.572	414.008
616.700	412.600
616.828	423.875
616.956	412.317
617.085	421.117
617.213	413.967
617.341	409.733
617.469	418.892
617.597	417.533
617.725	418.375
617.853	414.808
617.981	421.158
618.110	415.642
618.238	419.892
618.366	421.200
618.494	427.050
618.622	424.058
618.750	421.108
618.878	419.367
619.006	420.392
619.135	420.783
619.263	423.875
619.391	421.775
619.519	426.592
619.647	423.183
619.775	422.375
619.903	429.100
620.031	428.500
620.160	422.358
620.288	428.867
620.416	430.150
620.544	430.917
620.672	429.325
620.800	431.683
620.928	433.025
621.056	429.942
621.185	429.683
621.313	427.342
621.441	428.808
621.569	433.408
621.697	424.208
621.825	434.600
621.953	432.000
622.081	434.933
622.210	435.258
622.338	434.008
622.466	430.525
622.594	429.000
622.722	434.550
622.850	431.467
622.978	438.258
623.106	438.167
623.235	433.967
623.363	435.808
623.491	438.092
623.619	433.400
623.747	437.142
623.875	436.617
624.003	432.442
624.131	435.075
624.260	431.758
624.388	438.733
624.516	439.525
624.644	432.400
624.772	432.883
624.900	436.142
625.028	431.575
625.156	436.667
625.285	434.667
625.413	437.100
625.541	432.933
625.669	433.042
625.797	435.192
625.925	436.475
626.053	431.042
626.181	437.658
626.310	435.000
626.438	435.042
626.566	438.525
626.694	439.167
626.822	436.225
626.950	438.275
627.078	437.108
627.206	431.450
627.335	444.142
627.463	438.275
627.591	438.733
627.719	433.842
627.847	439.783
627.975	438.358
628.103	434.242
628.231	438.250
628.360	436.058
628.488	442.117
628.616	434.492
628.744	436.250
628.872	436.758
629.000	435.783
629.128	437.933
629.256	436.308
629.385	436.808
629.513	436.633
629.641	441.683
629.769	436.308
629.897	437.392
630.025	437.433
630.153	434.583
630.281	436.450
630.410	433.358
630.538	440.367
630.666	438.450
630.794	436.975
630.922	435.100
631.050	433.908
631.178	438.267
631.306	431.567
631.435	434.267
631.563	437.108
631.691	430.100
631.819	432.350
631.947	442.258
632.075	436.775
632.203	438.475
632.331	441.358
632.460	437.800
632.588	437.817
632.716	434.883
632.844	436.850
632.972	438.433
633.100	440.292
633.228	437.808
633.356	437.017
633.485	436.767
633.613	438.000
633.741	436.700
633.869	441.242
633.997	437.783
634.125	439.617
634.253	433.942
634.381	436.750
634.510	436.583
634.638	434.950
634.766	437.925
634.894	433.667
635.022	434.550
635.150	434.542
635.278	437.958
635.406	431.500
635.535	439.133
635.663	436.558
635.791	434.142
635.919	436.650
636.047	434.017
636.175	428.850
636.303	437.200
636.431	433.158
636.560	435.833
636.688	433.517
636.816	433.933
636.944	431.750
637.072	437.933
637.200	437.208
637.328	429.142
637.456	435.508
637.585	432.742
637.713	434.767
637.841	436.508
637.969	428.292
638.097	432.442
638.225	436.833
638.353	434.783
638.481	434.917
638.610	432.092
638.738	439.200
638.866	431.167
638.994	433.275
639.122	435.525
639.250	439.992
639.378	437.200
639.506	436.200
639.635	434.633
639.763	433.317
639.891	441.958
640.019	438.975
640.147	437.867
640.275	429.775
640.403	432.775
640.531	436.217
640.660	433.250
640.788	435.900
640.916	435.167
641.044	440.200
641.172	431.625
641.300	437.500
641.428	435.583
641.556	439.183
641.685	435.025
641.813	433.575
641.941	439.083
642.069	432.333
642.197	438.167
642.325	436.175
642.453	440.025
642.581	438.017
642.710	440.783
642.838	436.875
642.966	438.475
643.094	438.242
643.222	443.317
643.350	436.350
643.478	445.383
643.606	438.467
643.735	435.758
643.863	435.975
643.991	439.933
644.119	442.117
644.247	443.575
644.375	440.817
644.503	445.158
644.631	444.000
644.760	440.342
644.888	442.017
645.016	443.242
645.144	445.492
645.272	438.583
645.400	441.883
645.528	445.842
645.656	436.792
645.785	438.367
645.913	439.142
646.041	443.325
646.169	440.883
646.297	438.283
646.425	439.292
646.553	438.225
646.681	440.917
646.810	439.475
646.938	442.183
647.066	434.133
647.194	439.483
647.322	440.133
647.450	436.167
647.578	441.942
647.706	436.808
647.835	433.267
647.963	437.425
648.091	438.525
648.219	432.750
648.347	433.917
648.475	435.092
648.603	435.133
648.731	435.600
648.860	435.525
648.988	434.392
649.116	436.200
649.244	432.142
649.372	428.692
649.500	430.717
649.628	432.325
649.756	432.250
649.885	426.692
650.013	430.342
650.141	429.733
650.269	425.733
650.397	431.450
650.525	426.225
650.653	429.308
650.781	427.208
650.910	426.133
651.038	423.417
651.166	429.008
651.294	424.842
651.422	420.758
651.550	418.875
651.678	417.758
651.806	421.992
651.935	418.767
652.063	413.592
652.191	419.592
652.319	416.692
652.447	415.650
652.575	419.000
652.703	418.650
652.831	416.583
652.960	415.475
653.088	413.717
653.216	408.750
653.344	411.083
653.472	411.133
653.600	414.342
653.728	412.442
653.856	410.917
653.985	409.683
654.113	413.025
654.241	411.200
654.369	409.183
654.497	412.875
654.625	409.183
654.753	409.925
654.881	409.417
655.010	412.250
655.138	408.892
655.266	413.750
655.394	406.625
655.522	411.717
655.650	403.100
655.778	406.133
655.906	409.475
656.035	408.717
656.163	405.133
656.291	409.217
656.419	410.383
656.547	405.433
656.675	405.267
656.803	407.250
656.931	403.725
657.060	405.658
657.188	404.400
657.316	403.717
657.444	400.458
657.572	401.158
657.700	403.500
657.828	409.275
657.956	397.292
658.085	408.908
658.213	397.542
658.341	399.633
658.469	398.958
658.597	402.583
658.725	403.192
658.853	395.042
658.981	398.058
659.110	402.342
659.238	401.142
659.366	399.900
659.494	396.592
659.622	400.650
659.750	404.758
659.878	396.375
660.006	398.792
660.135	398.383
660.263	396.783
660.391	393.367
660.519	398.908
660.647	397.500
660.775	396.033
660.903	391.167
661.031	392.492
661.160	392.983
661.288	396.292
661.416	398.217
661.544	396.967
661.672	393.183
661.800	391.200
661.928	396.925
662.056	393.042
662.185	389.925
662.313	392.942
662.441	391.633
662.569	389.858
662.697	398.192
662.825	396.458
662.953	393.692
663.081	388.900
663.210	392.383
663.338	394.258
663.466	390.958
663.594	396.558
663.722	389.083
663.850	392.458
663.978	391.175
664.106	394.067
664.235	391.108
664.363	391.067
664.491	392.675
664.619	394.633
664.747	394.758
664.875	390.433
665.003	389.033
