90-120-90_at_679.99nm_cut_at_1250.00Y_01.dat
24.01.2024
13:32:20
cut middle at Y: 1250.00
top cursor: 1310 down cursor: 1190 mean of: 120 lines , 2560 datapoints
wavelength(nm)	intensity[arb. units]
515.994	323.658
516.122	305.758
516.250	302.550
516.378	298.625
516.506	299.025
516.635	302.375
516.763	306.242
516.891	301.708
517.019	305.750
517.147	301.517
517.275	300.683
517.403	301.383
517.531	302.050
517.660	301.800
517.788	302.708
517.916	303.383
518.044	301.550
518.172	303.942
518.300	302.683
518.428	303.950
518.556	302.192
518.685	308.500
518.813	306.325
518.941	306.900
519.069	306.158
519.197	307.492
519.325	311.050
519.453	310.092
519.581	313.583
519.710	310.092
519.838	310.342
519.966	311.092
520.094	312.842
520.222	311.350
520.350	308.575
520.478	311.917
520.606	315.475
520.735	314.617
520.863	319.383
520.991	320.342
521.119	313.075
521.247	317.217
521.375	314.183
521.503	317.300
521.631	323.050
521.760	317.633
521.888	319.867
522.016	321.983
522.144	320.717
522.272	324.608
522.400	322.117
522.528	327.200
522.656	324.600
522.785	324.525
522.913	327.992
523.041	326.283
523.169	321.883
523.297	326.883
523.425	323.517
523.553	326.592
523.681	327.783
523.810	330.933
523.938	333.158
524.066	328.217
524.194	324.208
524.322	328.625
524.450	323.017
524.578	325.825
524.706	331.658
524.835	327.033
524.963	329.733
525.091	324.600
525.219	327.017
525.347	323.692
525.475	330.042
525.603	327.250
525.731	331.158
525.860	326.950
525.988	326.608
526.116	326.200
526.244	328.683
526.372	328.892
526.500	329.958
526.628	328.917
526.756	326.383
526.885	327.242
527.013	328.267
527.141	333.850
527.269	329.167
527.397	330.583
527.525	331.692
527.653	330.858
527.781	325.183
527.910	336.867
528.038	330.450
528.166	332.467
528.294	334.450
528.422	334.158
528.550	336.558
528.678	332.967
528.806	341.150
528.935	337.442
529.063	334.225
529.191	335.842
529.319	339.583
529.447	337.675
529.575	343.183
529.703	336.625
529.831	337.333
529.960	338.167
530.088	340.208
530.216	343.233
530.344	341.350
530.472	342.350
530.600	346.392
530.728	346.833
530.856	344.025
530.985	346.133
531.113	341.500
531.241	352.833
531.369	344.325
531.497	349.400
531.625	343.800
531.753	342.358
531.881	348.842
532.010	346.642
532.138	341.267
532.266	344.508
532.394	349.542
532.522	343.700
532.650	347.933
532.778	347.242
532.906	347.658
533.035	346.625
533.163	345.258
533.291	344.833
533.419	343.317
533.547	349.108
533.675	345.500
533.803	345.517
533.931	345.767
534.060	345.975
534.188	348.208
534.316	345.667
534.444	345.267
534.572	346.667
534.700	347.342
534.828	346.325
534.956	349.675
535.085	349.817
535.213	346.617
535.341	347.308
535.469	348.083
535.597	355.550
535.725	353.842
535.853	350.900
535.981	350.575
536.110	354.642
536.238	350.483
536.366	357.383
536.494	350.775
536.622	356.392
536.750	356.075
536.878	359.808
537.006	359.350
537.135	361.750
537.263	359.517
537.391	363.425
537.519	361.783
537.647	359.767
537.775	363.583
537.903	361.542
538.031	364.850
538.160	362.742
538.288	364.708
538.416	365.242
538.544	360.267
538.672	369.125
538.800	366.350
538.928	365.367
539.056	366.200
539.185	368.375
539.313	364.550
539.441	366.225
539.569	365.092
539.697	364.158
539.825	368.008
539.953	365.100
540.081	362.192
540.210	369.467
540.338	367.083
540.466	369.308
540.594	369.192
540.722	362.750
540.850	362.442
540.978	369.858
541.106	364.933
541.235	371.367
541.363	362.900
541.491	368.625
541.619	369.017
541.747	368.125
541.875	363.500
542.003	368.842
542.131	368.183
542.260	368.708
542.388	370.917
542.516	370.958
542.644	370.850
542.772	373.892
542.900	369.917
543.028	371.892
543.156	370.917
543.285	367.567
543.413	367.750
543.541	370.208
543.669	372.492
543.797	369.858
543.925	372.300
544.053	376.592
544.181	372.283
544.310	369.567
544.438	369.142
544.566	368.950
544.694	372.792
544.822	375.150
544.950	375.492
545.078	373.758
545.206	369.308
545.335	374.250
545.463	368.500
545.591	372.275
545.719	372.292
545.847	375.883
545.975	374.308
546.103	375.025
546.231	376.383
546.360	377.092
546.488	374.250
546.616	379.292
546.744	375.500
546.872	372.950
547.000	377.008
547.128	376.983
547.256	380.358
547.385	376.642
547.513	375.792
547.641	378.617
547.769	380.250
547.897	378.092
548.025	379.692
548.153	382.300
548.281	382.142
548.410	378.500
548.538	381.308
548.666	382.633
548.794	382.083
548.922	384.167
549.050	381.008
549.178	377.558
549.306	384.158
549.435	382.500
549.563	380.658
549.691	378.600
549.819	383.208
549.947	385.775
550.075	381.583
550.203	385.317
550.331	378.775
550.460	378.992
550.588	381.425
550.716	383.583
550.844	381.600
550.972	382.150
551.100	375.258
551.228	385.000
551.356	379.875
551.485	381.175
551.613	381.850
551.741	380.783
551.869	379.508
551.997	376.567
552.125	375.875
552.253	378.325
552.381	372.883
552.510	377.625
552.638	376.625
552.766	378.967
552.894	375.933
553.022	375.092
553.150	375.417
553.278	369.558
553.406	371.050
553.535	374.592
553.663	376.067
553.791	369.933
553.919	372.042
554.047	376.742
554.175	369.800
554.303	376.533
554.431	368.258
554.560	374.242
554.688	376.892
554.816	372.183
554.944	376.858
555.072	376.125
555.200	375.292
555.328	374.208
555.456	379.567
555.585	376.383
555.713	376.700
555.841	379.717
555.969	376.358
556.097	381.642
556.225	380.133
556.353	378.117
556.481	377.483
556.610	381.475
556.738	382.567
556.866	380.508
556.994	379.808
557.122	379.525
557.250	385.208
557.378	383.033
557.506	381.533
557.635	381.458
557.763	384.075
557.891	387.400
558.019	377.892
558.147	388.158
558.275	380.500
558.403	387.992
558.531	385.308
558.660	382.767
558.788	387.575
558.916	385.275
559.044	381.808
559.172	386.317
559.300	390.392
559.428	386.650
559.556	389.842
559.685	388.025
559.813	384.100
559.941	383.650
560.069	390.783
560.197	391.475
560.325	389.667
560.453	386.533
560.581	389.792
560.710	386.817
560.838	382.817
560.966	389.058
561.094	392.292
561.222	383.517
561.350	388.550
561.478	383.350
561.606	387.492
561.735	387.650
561.863	387.108
561.991	383.458
562.119	385.367
562.247	387.208
562.375	387.275
562.503	381.533
562.631	383.467
562.760	384.592
562.888	384.650
563.016	382.475
563.144	385.242
563.272	383.475
563.400	382.142
563.528	381.625
563.656	381.208
563.785	383.233
563.913	384.217
564.041	385.792
564.169	378.642
564.297	384.342
564.425	378.217
564.553	384.117
564.681	385.158
564.810	383.617
564.938	385.758
565.066	383.900
565.194	381.608
565.322	384.283
565.450	385.867
565.578	385.592
565.706	382.558
565.835	387.833
565.963	388.100
566.091	377.308
566.219	382.092
566.347	384.942
566.475	386.725
566.603	386.808
566.731	390.150
566.860	383.933
566.988	389.808
567.116	388.242
567.244	391.000
567.372	391.217
567.500	391.125
567.628	390.708
567.756	394.817
567.885	395.617
568.013	393.183
568.141	393.575
568.269	392.000
568.397	392.667
568.525	394.908
568.653	401.008
568.781	396.675
568.910	396.883
569.038	397.625
569.166	393.650
569.294	399.100
569.422	396.058
569.550	400.258
569.678	401.825
569.806	402.017
569.935	401.775
570.063	401.400
570.191	399.700
570.319	403.575
570.447	406.492
570.575	403.675
570.703	404.267
570.831	406.492
570.960	403.467
571.088	405.617
571.216	401.100
571.344	407.500
571.472	406.758
571.600	409.833
571.728	408.500
571.856	408.683
571.985	407.750
572.113	407.683
572.241	408.383
572.369	408.675
572.497	407.058
572.625	411.142
572.753	407.383
572.881	405.350
573.010	409.858
573.138	413.817
573.266	414.067
573.394	411.608
573.522	416.783
573.650	412.217
573.778	411.250
573.906	412.275
574.035	417.517
574.163	414.683
574.291	408.575
574.419	413.733
574.547	414.225
574.675	412.358
574.803	410.983
574.931	408.800
575.060	419.700
575.188	411.808
575.316	413.658
575.444	413.775
575.572	414.542
575.700	413.525
575.828	411.075
575.956	412.842
576.085	410.250
576.213	416.092
576.341	408.258
576.469	410.625
576.597	411.892
576.725	414.925
576.853	411.733
576.981	408.442
577.110	409.442
577.238	411.375
577.366	411.225
577.494	404.458
577.622	408.642
577.750	410.433
577.878	405.708
578.006	413.833
578.135	410.858
578.263	406.958
578.391	409.892
578.519	404.375
578.647	407.642
578.775	403.650
578.903	404.267
579.031	410.392
579.160	406.533
579.288	401.933
579.416	408.033
579.544	399.192
579.672	409.417
579.800	409.358
579.928	408.500
580.056	402.650
580.185	405.175
580.313	406.642
580.441	409.108
580.569	403.558
580.697	404.667
580.825	406.425
580.953	407.308
581.081	410.758
581.210	412.058
581.338	408.317
581.466	408.608
581.594	409.567
581.722	412.642
581.850	410.333
581.978	408.008
582.106	408.192
582.235	409.967
582.363	410.317
582.491	410.117
582.619	411.092
582.747	413.775
582.875	414.292
583.003	416.217
583.131	413.792
583.260	415.442
583.388	418.125
583.516	419.767
583.644	420.700
583.772	420.167
583.900	419.942
584.028	422.417
584.156	419.708
584.285	422.783
584.413	417.017
584.541	422.575
584.669	422.617
584.797	427.833
584.925	423.850
585.053	422.558
585.181	428.142
585.310	426.183
585.438	430.733
585.566	428.900
585.694	433.117
585.822	433.467
585.950	434.975
586.078	434.700
586.206	433.417
586.335	433.575
586.463	434.333
586.591	438.383
586.719	432.975
586.847	430.758
586.975	439.392
587.103	435.567
587.231	435.942
587.360	435.417
587.488	437.308
587.616	440.783
587.744	439.067
587.872	440.708
588.000	439.350
588.128	436.858
588.256	442.433
588.385	431.942
588.513	443.225
588.641	440.425
588.769	445.883
588.897	439.867
589.025	439.475
589.153	441.967
589.281	432.883
589.410	439.917
589.538	438.583
589.666	443.667
589.794	441.617
589.922	446.092
590.050	439.633
590.178	442.725
590.306	445.533
590.435	439.883
590.563	438.942
590.691	448.567
590.819	446.642
590.947	450.200
591.075	439.267
591.203	443.950
591.331	445.308
591.460	447.625
591.588	441.600
591.716	450.025
591.844	443.050
591.972	447.733
592.100	448.783
592.228	443.433
592.356	443.950
592.485	441.192
592.613	447.542
592.741	447.708
592.869	447.808
592.997	443.517
593.125	446.958
593.253	450.975
593.381	447.208
593.510	449.992
593.638	450.275
593.766	449.200
593.894	453.642
594.022	451.608
594.150	453.042
594.278	456.608
594.406	454.175
594.535	456.158
594.663	454.858
594.791	455.525
594.919	455.408
595.047	456.192
595.175	457.833
595.303	456.017
595.431	453.842
595.560	461.650
595.688	459.325
595.816	459.458
595.944	458.992
596.072	465.508
596.200	454.050
596.328	459.908
596.456	472.750
596.585	460.383
596.713	465.442
596.841	461.842
596.969	464.142
597.097	467.267
597.225	466.775
597.353	468.108
597.481	470.500
597.610	471.150
597.738	469.758
597.866	467.558
597.994	473.642
598.122	471.158
598.250	467.483
598.378	468.617
598.506	473.725
598.635	471.575
598.763	473.692
598.891	469.800
599.019	473.175
599.147	472.383
599.275	472.250
599.403	471.558
599.531	474.900
599.660	473.000
599.788	472.550
599.916	475.817
600.044	476.375
600.172	478.100
600.300	476.125
600.428	480.958
600.556	486.058
600.685	479.783
600.813	476.600
600.941	484.492
601.069	484.825
601.197	484.758
601.325	483.450
601.453	488.458
601.581	484.958
601.710	487.217
601.838	490.058
601.966	488.308
602.094	486.000
602.222	491.733
602.350	489.783
602.478	488.925
602.606	491.783
602.735	493.033
602.863	501.442
602.991	493.325
603.119	498.533
603.247	500.392
603.375	498.783
603.503	495.825
603.631	497.842
603.760	499.692
603.888	499.325
604.016	504.125
604.144	501.267
604.272	504.850
604.400	499.225
604.528	499.725
604.656	506.058
604.785	506.383
604.913	512.442
605.041	506.925
605.169	514.258
605.297	509.167
605.425	512.358
605.553	510.342
605.681	506.075
605.810	513.242
605.938	512.700
606.066	513.275
606.194	512.675
606.322	509.467
606.450	511.792
606.578	519.675
606.706	515.750
606.835	520.267
606.963	518.783
607.091	518.900
607.219	516.292
607.347	508.425
607.475	518.133
607.603	517.242
607.731	513.400
607.860	511.242
607.988	518.233
608.116	513.242
608.244	517.117
608.372	520.683
608.500	525.442
608.628	514.275
608.756	519.883
608.885	518.833
609.013	521.408
609.141	518.167
609.269	522.725
609.397	516.583
609.525	516.617
609.653	519.275
609.781	520.950
609.910	516.617
610.038	515.042
610.166	517.192
610.294	517.683
610.422	518.650
610.550	517.025
610.678	518.950
610.806	518.650
610.935	520.483
611.063	520.575
611.191	518.983
611.319	516.233
611.447	518.675
611.575	519.783
611.703	518.325
611.831	517.975
611.960	517.992
612.088	515.417
612.216	520.483
612.344	521.158
612.472	516.825
612.600	522.550
612.728	518.633
612.856	522.483
612.985	513.375
613.113	517.483
613.241	522.567
613.369	519.267
613.497	522.008
613.625	525.550
613.753	517.425
613.881	515.325
614.010	526.275
614.138	519.800
614.266	519.650
614.394	519.617
614.522	524.008
614.650	526.667
614.778	523.917
614.906	526.842
615.035	525.158
615.163	521.017
615.291	522.600
615.419	525.975
615.547	520.525
615.675	527.242
615.803	522.383
615.931	533.825
616.060	527.442
616.188	525.542
616.316	529.250
616.444	525.850
616.572	532.408
616.700	529.975
616.828	534.742
616.956	530.617
617.085	538.058
617.213	537.817
617.341	534.417
617.469	535.958
617.597	538.217
617.725	536.383
617.853	533.617
617.981	538.583
618.110	537.867
618.238	538.500
618.366	550.758
618.494	545.658
618.622	541.825
618.750	541.792
618.878	545.400
619.006	547.375
619.135	549.183
619.263	551.633
619.391	553.417
619.519	552.650
619.647	549.983
619.775	553.858
619.903	550.000
620.031	555.708
620.160	553.467
620.288	550.908
620.416	561.208
620.544	557.650
620.672	562.150
620.800	558.267
620.928	566.758
621.056	562.508
621.185	562.875
621.313	561.358
621.441	562.058
621.569	570.067
621.697	564.742
621.825	571.233
621.953	566.558
622.081	571.725
622.210	563.125
622.338	564.517
622.466	564.425
622.594	569.800
622.722	574.708
622.850	573.025
622.978	574.792
623.106	573.633
623.235	574.200
623.363	574.017
623.491	578.633
623.619	571.375
623.747	572.025
623.875	578.258
624.003	571.375
624.131	577.175
624.260	566.742
624.388	580.000
624.516	582.083
624.644	574.558
624.772	575.500
624.900	575.792
625.028	572.692
625.156	588.167
625.285	580.150
625.413	578.683
625.541	583.508
625.669	583.125
625.797	581.100
625.925	576.733
626.053	578.242
626.181	580.900
626.310	580.117
626.438	578.000
626.566	576.775
626.694	579.817
626.822	580.058
626.950	590.308
627.078	582.975
627.206	578.700
627.335	585.367
627.463	579.092
627.591	587.383
627.719	582.208
627.847	588.200
627.975	583.458
628.103	579.017
628.231	583.283
628.360	584.675
628.488	588.533
628.616	584.667
628.744	582.042
628.872	582.450
629.000	583.983
629.128	588.067
629.256	591.242
629.385	586.367
629.513	581.208
629.641	586.417
629.769	582.508
629.897	586.075
630.025	581.100
630.153	588.325
630.281	589.367
630.410	583.358
630.538	588.192
630.666	585.558
630.794	586.775
630.922	589.258
631.050	583.558
631.178	589.992
631.306	586.217
631.435	582.225
631.563	592.225
631.691	579.417
631.819	584.292
631.947	592.675
632.075	589.317
632.203	589.692
632.331	592.358
632.460	585.017
632.588	587.542
632.716	588.158
632.844	582.908
632.972	593.950
633.100	592.367
633.228	594.333
633.356	583.283
633.485	585.975
633.613	592.067
633.741	588.183
633.869	589.133
633.997	588.908
634.125	591.008
634.253	579.900
634.381	587.500
634.510	586.792
634.638	582.675
634.766	578.833
634.894	585.950
635.022	580.842
635.150	578.508
635.278	587.300
635.406	584.417
635.535	584.350
635.663	585.617
635.791	580.775
635.919	586.825
636.047	579.783
636.175	575.058
636.303	585.775
636.431	581.817
636.560	585.542
636.688	582.400
636.816	586.975
636.944	583.792
637.072	585.750
637.200	578.400
637.328	578.017
637.456	580.933
637.585	584.817
637.713	590.025
637.841	584.167
637.969	586.983
638.097	577.342
638.225	587.700
638.353	587.258
638.481	589.667
638.610	585.858
638.738	583.125
638.866	587.900
638.994	586.158
639.122	589.042
639.250	591.317
639.378	584.217
639.506	582.542
639.635	587.358
639.763	581.525
639.891	586.492
640.019	593.683
640.147	587.133
640.275	586.575
640.403	586.117
640.531	590.750
640.660	592.608
640.788	590.542
640.916	587.208
641.044	592.242
641.172	584.242
641.300	595.058
641.428	585.733
641.556	598.025
641.685	589.592
641.813	593.042
641.941	590.933
642.069	594.283
642.197	592.492
642.325	591.875
642.453	597.558
642.581	595.925
642.710	591.100
642.838	599.850
642.966	601.783
643.094	593.733
643.222	600.000
643.350	591.025
643.478	594.825
643.606	600.208
643.735	600.600
643.863	583.625
643.991	597.408
644.119	600.533
644.247	599.592
644.375	595.925
644.503	597.517
644.631	599.300
644.760	601.575
644.888	601.500
645.016	597.008
645.144	607.542
645.272	594.558
645.400	592.367
645.528	597.400
645.656	597.433
645.785	596.025
645.913	595.425
646.041	601.100
646.169	596.658
646.297	590.208
646.425	593.442
646.553	597.542
646.681	591.258
646.810	588.200
646.938	593.325
647.066	590.183
647.194	593.433
647.322	587.050
647.450	594.167
647.578	594.050
647.706	588.075
647.835	594.542
647.963	588.025
648.091	586.875
648.219	587.792
648.347	585.867
648.475	582.567
648.603	587.742
648.731	584.092
648.860	581.108
648.988	583.225
649.116	584.233
649.244	578.425
649.372	581.825
649.500	579.450
649.628	586.867
649.756	582.925
649.885	576.342
650.013	573.992
650.141	574.908
650.269	577.483
650.397	577.208
650.525	571.567
650.653	574.058
650.781	565.775
650.910	568.733
651.038	564.983
651.166	576.025
651.294	568.200
651.422	562.608
651.550	555.367
651.678	559.608
651.806	558.642
651.935	563.050
652.063	557.125
652.191	559.008
652.319	554.983
652.447	557.567
652.575	553.775
652.703	557.225
652.831	550.758
652.960	554.392
653.088	548.775
653.216	554.892
653.344	549.450
653.472	552.850
653.600	547.608
653.728	550.858
653.856	547.708
653.985	551.183
654.113	548.408
654.241	554.075
654.369	547.100
654.497	548.442
654.625	550.675
654.753	545.392
654.881	541.700
655.010	546.050
655.138	544.583
655.266	538.125
655.394	537.833
655.522	542.450
655.650	537.358
655.778	540.433
655.906	541.733
656.035	543.217
656.163	541.250
656.291	545.575
656.419	539.708
656.547	539.058
656.675	539.383
656.803	536.808
656.931	536.500
657.060	536.658
657.188	535.425
657.316	537.900
657.444	535.100
657.572	537.325
657.700	535.233
657.828	535.433
657.956	534.475
658.085	544.608
658.213	534.650
658.341	533.617
658.469	529.942
658.597	533.992
658.725	542.625
658.853	526.600
658.981	532.675
659.110	536.075
659.238	531.342
659.366	537.483
659.494	528.792
659.622	536.058
659.750	535.575
659.878	532.742
660.006	530.542
660.135	527.267
660.263	532.383
660.391	526.275
660.519	535.608
660.647	523.242
660.775	534.325
660.903	528.958
661.031	522.525
661.160	530.975
661.288	527.383
661.416	531.092
661.544	527.842
661.672	519.725
661.800	524.417
661.928	523.808
662.056	524.083
662.185	518.650
662.313	521.408
662.441	521.892
662.569	520.083
662.697	519.433
662.825	520.500
662.953	523.600
663.081	515.117
663.210	512.533
663.338	520.650
663.466	521.283
663.594	514.000
663.722	513.500
663.850	515.367
663.978	513.142
664.106	522.908
664.235	516.042
664.363	514.692
664.491	511.158
664.619	511.233
664.747	513.242
664.875	510.025
665.003	512.842
