90-120-unpol_at_679.99nm_cut_at_1250.00Y_01.dat
24.01.2024
13:31:46
cut middle at Y: 1250.00
top cursor: 1310 down cursor: 1190 mean of: 120 lines , 2560 datapoints
wavelength(nm)	intensity[arb. units]
515.994	738.750
516.122	696.842
516.250	692.208
516.378	671.508
516.506	677.825
516.635	684.800
516.763	688.358
516.891	689.100
517.019	688.358
517.147	690.892
517.275	691.033
517.403	694.408
517.531	684.150
517.660	683.617
517.788	691.867
517.916	686.533
518.044	687.392
518.172	695.550
518.300	696.958
518.428	693.675
518.556	703.942
518.685	695.300
518.813	701.858
518.941	703.792
519.069	707.083
519.197	704.367
519.325	708.050
519.453	706.558
519.581	717.125
519.710	707.108
519.838	718.792
519.966	717.233
520.094	721.233
520.222	715.300
520.350	724.367
520.478	721.200
520.606	727.408
520.735	734.233
520.863	726.583
520.991	739.942
521.119	733.625
521.247	739.875
521.375	738.525
521.503	739.875
521.631	739.633
521.760	747.067
521.888	753.958
522.016	748.250
522.144	744.233
522.272	748.500
522.400	752.650
522.528	763.133
522.656	762.133
522.785	759.292
522.913	764.108
523.041	762.067
523.169	762.025
523.297	759.225
523.425	763.192
523.553	771.617
523.681	761.917
523.810	771.150
523.938	769.192
524.066	771.175
524.194	775.150
524.322	769.067
524.450	762.100
524.578	767.667
524.706	774.425
524.835	768.642
524.963	776.075
525.091	766.600
525.219	765.658
525.347	771.550
525.475	780.208
525.603	775.025
525.731	773.092
525.860	773.358
525.988	769.658
526.116	770.450
526.244	774.592
526.372	772.117
526.500	773.067
526.628	779.225
526.756	776.550
526.885	777.492
527.013	778.775
527.141	776.200
527.269	785.592
527.397	779.683
527.525	785.883
527.653	782.575
527.781	783.050
527.910	789.950
528.038	782.758
528.166	791.117
528.294	788.833
528.422	789.792
528.550	797.100
528.678	797.792
528.806	795.942
528.935	803.833
529.063	793.625
529.191	804.117
529.319	806.450
529.447	802.350
529.575	805.917
529.703	805.742
529.831	816.625
529.960	808.225
530.088	818.492
530.216	807.325
530.344	810.083
530.472	817.500
530.600	818.150
530.728	823.967
530.856	822.100
530.985	821.667
531.113	813.692
531.241	830.008
531.369	824.842
531.497	819.017
531.625	817.783
531.753	819.133
531.881	823.500
532.010	822.667
532.138	823.958
532.266	823.833
532.394	821.017
532.522	812.700
532.650	822.000
532.778	826.675
532.906	815.417
533.035	825.083
533.163	816.758
533.291	819.717
533.419	813.008
533.547	816.292
533.675	823.475
533.803	820.817
533.931	825.667
534.060	821.367
534.188	830.733
534.316	822.358
534.444	811.942
534.572	821.792
534.700	828.042
534.828	822.475
534.956	827.567
535.085	839.267
535.213	837.367
535.341	825.433
535.469	825.233
535.597	845.017
535.725	840.542
535.853	838.550
535.981	838.258
536.110	848.675
536.238	845.425
536.366	848.608
536.494	844.050
536.622	853.142
536.750	848.275
536.878	867.150
537.006	858.417
537.135	864.458
537.263	862.167
537.391	869.808
537.519	864.200
537.647	874.942
537.775	876.117
537.903	870.050
538.031	874.158
538.160	878.067
538.288	880.700
538.416	878.383
538.544	881.842
538.672	884.525
538.800	880.375
538.928	886.708
539.056	894.608
539.185	882.550
539.313	883.433
539.441	890.117
539.569	885.083
539.697	891.483
539.825	893.508
539.953	886.283
540.081	887.017
540.210	895.875
540.338	888.642
540.466	894.933
540.594	894.675
540.722	885.925
540.850	895.100
540.978	894.608
541.106	899.208
541.235	903.367
541.363	891.825
541.491	896.875
541.619	895.833
541.747	899.583
541.875	895.483
542.003	894.142
542.131	898.858
542.260	903.567
542.388	896.383
542.516	902.625
542.644	901.592
542.772	901.917
542.900	897.217
543.028	906.267
543.156	907.983
543.285	911.292
543.413	898.492
543.541	908.433
543.669	910.642
543.797	906.367
543.925	903.117
544.053	908.900
544.181	902.775
544.310	907.767
544.438	906.408
544.566	913.075
544.694	913.133
544.822	914.033
544.950	909.233
545.078	913.817
545.206	910.083
545.335	912.075
545.463	909.625
545.591	914.433
545.719	910.917
545.847	905.842
545.975	915.400
546.103	911.492
546.231	916.925
546.360	916.092
546.488	924.817
546.616	921.117
546.744	918.442
546.872	913.833
547.000	915.258
547.128	920.275
547.256	922.042
547.385	919.833
547.513	922.483
547.641	923.133
547.769	930.200
547.897	923.392
548.025	924.508
548.153	930.450
548.281	922.817
548.410	925.683
548.538	925.008
548.666	927.567
548.794	935.250
548.922	921.433
549.050	931.625
549.178	932.417
549.306	927.692
549.435	932.850
549.563	920.867
549.691	924.658
549.819	939.792
549.947	932.925
550.075	936.575
550.203	938.583
550.331	931.442
550.460	928.533
550.588	931.300
550.716	945.700
550.844	925.017
550.972	936.892
551.100	933.067
551.228	924.158
551.356	919.150
551.485	928.042
551.613	928.617
551.741	918.250
551.869	928.492
551.997	916.142
552.125	923.250
552.253	924.317
552.381	910.467
552.510	909.142
552.638	912.192
552.766	914.050
552.894	900.242
553.022	910.067
553.150	911.225
553.278	904.183
553.406	918.000
553.535	901.833
553.663	902.817
553.791	912.117
553.919	909.608
554.047	908.133
554.175	899.983
554.303	905.617
554.431	902.183
554.560	909.892
554.688	907.683
554.816	907.008
554.944	909.042
555.072	908.225
555.200	905.942
555.328	900.525
555.456	914.442
555.585	908.925
555.713	906.783
555.841	914.025
555.969	913.542
556.097	915.483
556.225	921.967
556.353	920.275
556.481	910.708
556.610	924.533
556.738	916.358
556.866	922.275
556.994	921.475
557.122	911.650
557.250	927.925
557.378	918.667
557.506	920.375
557.635	923.942
557.763	921.050
557.891	926.117
558.019	917.775
558.147	928.283
558.275	924.275
558.403	938.792
558.531	930.958
558.660	929.608
558.788	931.033
558.916	931.467
559.044	923.917
559.172	922.525
559.300	945.575
559.428	935.108
559.556	942.792
559.685	927.742
559.813	928.850
559.941	929.117
560.069	948.667
560.197	933.675
560.325	933.325
560.453	921.692
560.581	936.808
560.710	931.125
560.838	937.408
560.966	925.208
561.094	941.300
561.222	936.433
561.350	921.275
561.478	929.108
561.606	932.350
561.735	924.258
561.863	928.867
561.991	927.708
562.119	924.933
562.247	917.842
562.375	922.117
562.503	923.283
562.631	919.817
562.760	916.558
562.888	925.658
563.016	922.650
563.144	921.567
563.272	921.292
563.400	912.167
563.528	914.775
563.656	922.683
563.785	920.258
563.913	919.625
564.041	914.633
564.169	916.625
564.297	920.600
564.425	912.042
564.553	928.208
564.681	924.200
564.810	918.992
564.938	921.558
565.066	921.267
565.194	925.175
565.322	922.583
565.450	924.117
565.578	928.675
565.706	917.908
565.835	929.467
565.963	931.575
566.091	926.433
566.219	935.975
566.347	928.200
566.475	936.000
566.603	931.558
566.731	930.683
566.860	932.317
566.988	937.567
567.116	938.300
567.244	935.592
567.372	942.058
567.500	943.492
567.628	937.058
567.756	935.625
567.885	946.092
568.013	947.283
568.141	950.908
568.269	942.975
568.397	946.067
568.525	946.658
568.653	957.408
568.781	956.200
568.910	971.300
569.038	964.583
569.166	951.100
569.294	956.242
569.422	961.408
569.550	955.550
569.678	957.417
569.806	960.167
569.935	958.708
570.063	965.767
570.191	971.058
570.319	970.475
570.447	971.117
570.575	968.392
570.703	975.758
570.831	975.517
570.960	968.567
571.088	970.233
571.216	972.533
571.344	974.658
571.472	980.000
571.600	980.608
571.728	973.558
571.856	978.283
571.985	984.158
572.113	983.533
572.241	979.900
572.369	988.400
572.497	982.733
572.625	997.533
572.753	977.033
572.881	992.917
573.010	995.042
573.138	1003.967
573.266	996.592
573.394	991.992
573.522	995.542
573.650	1003.375
573.778	995.600
573.906	992.333
574.035	995.217
574.163	994.142
574.291	986.700
574.419	996.792
574.547	998.667
574.675	995.892
574.803	991.775
574.931	991.158
575.060	1000.833
575.188	997.292
575.316	997.750
575.444	995.542
575.572	1008.517
575.700	988.800
575.828	997.875
575.956	999.075
576.085	989.875
576.213	996.033
576.341	986.142
576.469	985.942
576.597	986.042
576.725	991.842
576.853	984.592
576.981	990.217
577.110	989.575
577.238	999.000
577.366	982.808
577.494	978.875
577.622	977.383
577.750	991.658
577.878	987.733
578.006	999.758
578.135	992.875
578.263	986.508
578.391	989.800
578.519	992.792
578.647	994.325
578.775	982.500
578.903	988.925
579.031	994.100
579.160	985.092
579.288	983.508
579.416	979.300
579.544	987.167
579.672	994.208
579.800	990.142
579.928	986.233
580.056	973.433
580.185	979.167
580.313	986.075
580.441	994.725
580.569	987.225
580.697	982.133
580.825	989.750
580.953	987.192
581.081	992.025
581.210	988.525
581.338	999.592
581.466	994.242
581.594	1003.158
581.722	994.850
581.850	991.283
581.978	996.583
582.106	999.508
582.235	1009.667
582.363	996.383
582.491	1001.150
582.619	1001.858
582.747	1007.425
582.875	1011.100
583.003	1016.458
583.131	1015.392
583.260	1010.708
583.388	1024.358
583.516	1014.475
583.644	1016.608
583.772	1029.275
583.900	1034.417
584.028	1037.992
584.156	1022.708
584.285	1037.508
584.413	1032.700
584.541	1041.017
584.669	1043.342
584.797	1037.500
584.925	1041.625
585.053	1048.033
585.181	1051.983
585.310	1051.525
585.438	1047.617
585.566	1046.725
585.694	1049.942
585.822	1066.758
585.950	1058.075
586.078	1062.817
586.206	1070.442
586.335	1067.375
586.463	1069.833
586.591	1071.383
586.719	1072.883
586.847	1071.675
586.975	1072.108
587.103	1070.783
587.231	1070.125
587.360	1085.858
587.488	1079.258
587.616	1072.367
587.744	1087.258
587.872	1079.925
588.000	1084.183
588.128	1083.175
588.256	1079.292
588.385	1073.833
588.513	1082.933
588.641	1084.817
588.769	1094.783
588.897	1087.717
589.025	1080.783
589.153	1079.900
589.281	1079.108
589.410	1084.550
589.538	1078.550
589.666	1078.675
589.794	1081.000
589.922	1093.008
590.050	1085.775
590.178	1076.592
590.306	1083.750
590.435	1082.158
590.563	1084.442
590.691	1083.608
590.819	1079.875
590.947	1091.400
591.075	1078.067
591.203	1075.550
591.331	1095.708
591.460	1093.467
591.588	1090.017
591.716	1097.967
591.844	1091.950
591.972	1104.100
592.100	1089.992
592.228	1089.758
592.356	1098.817
592.485	1090.650
592.613	1090.300
592.741	1092.475
592.869	1104.375
592.997	1099.067
593.125	1100.033
593.253	1106.575
593.381	1099.117
593.510	1108.767
593.638	1104.592
593.766	1106.150
593.894	1108.658
594.022	1110.267
594.150	1109.300
594.278	1119.050
594.406	1114.542
594.535	1113.808
594.663	1115.508
594.791	1119.433
594.919	1120.600
595.047	1124.450
595.175	1126.725
595.303	1122.392
595.431	1121.708
595.560	1140.725
595.688	1129.917
595.816	1118.058
595.944	1140.442
596.072	1143.092
596.200	1127.525
596.328	1133.417
596.456	1136.292
596.585	1143.108
596.713	1147.142
596.841	1141.725
596.969	1141.642
597.097	1143.250
597.225	1146.567
597.353	1149.917
597.481	1150.708
597.610	1149.867
597.738	1152.975
597.866	1141.658
597.994	1154.275
598.122	1160.300
598.250	1157.533
598.378	1145.008
598.506	1147.900
598.635	1154.300
598.763	1161.808
598.891	1160.108
599.019	1156.742
599.147	1150.408
599.275	1159.408
599.403	1157.592
599.531	1170.358
599.660	1161.367
599.788	1170.492
599.916	1161.117
600.044	1172.008
600.172	1167.017
600.300	1180.975
600.428	1174.558
600.556	1169.442
600.685	1169.125
600.813	1172.100
600.941	1190.833
601.069	1190.975
601.197	1190.425
601.325	1180.158
601.453	1191.617
601.581	1190.575
601.710	1191.433
601.838	1195.917
601.966	1204.042
602.094	1191.792
602.222	1191.075
602.350	1197.550
602.478	1198.967
602.606	1205.900
602.735	1190.983
602.863	1207.392
602.991	1211.758
603.119	1215.733
603.247	1208.558
603.375	1218.408
603.503	1221.183
603.631	1226.758
603.760	1220.083
603.888	1223.783
604.016	1232.750
604.144	1225.400
604.272	1230.817
604.400	1229.083
604.528	1219.733
604.656	1241.875
604.785	1241.792
604.913	1241.758
605.041	1255.783
605.169	1234.842
605.297	1245.792
605.425	1244.550
605.553	1248.333
605.681	1241.225
605.810	1248.342
605.938	1243.608
606.066	1248.642
606.194	1260.133
606.322	1245.367
606.450	1259.550
606.578	1255.608
606.706	1257.442
606.835	1260.175
606.963	1262.925
607.091	1255.817
607.219	1252.758
607.347	1257.733
607.475	1266.767
607.603	1274.350
607.731	1262.075
607.860	1260.025
607.988	1269.208
608.116	1256.925
608.244	1254.458
608.372	1260.725
608.500	1263.883
608.628	1264.775
608.756	1263.517
608.885	1265.517
609.013	1263.033
609.141	1262.942
609.269	1266.067
609.397	1254.433
609.525	1268.317
609.653	1262.100
609.781	1262.867
609.910	1247.183
610.038	1250.433
610.166	1264.008
610.294	1248.242
610.422	1263.767
610.550	1259.733
610.678	1252.142
610.806	1261.717
610.935	1268.517
611.063	1267.600
611.191	1257.075
611.319	1258.592
611.447	1249.733
611.575	1262.683
611.703	1251.650
611.831	1261.233
611.960	1254.158
612.088	1263.567
612.216	1261.917
612.344	1268.392
612.472	1258.825
612.600	1267.608
612.728	1248.558
612.856	1265.858
612.985	1255.100
613.113	1254.625
613.241	1264.150
613.369	1265.067
613.497	1265.825
613.625	1264.858
613.753	1256.300
613.881	1264.300
614.010	1261.333
614.138	1252.050
614.266	1257.625
614.394	1261.008
614.522	1258.292
614.650	1273.258
614.778	1271.742
614.906	1266.733
615.035	1262.767
615.163	1254.642
615.291	1268.808
615.419	1265.208
615.547	1258.733
615.675	1265.775
615.803	1267.792
615.931	1277.025
616.060	1286.717
616.188	1275.117
616.316	1271.642
616.444	1274.442
616.572	1273.442
616.700	1276.692
616.828	1281.958
616.956	1282.642
617.085	1303.833
617.213	1285.775
617.341	1281.808
617.469	1283.450
617.597	1288.633
617.725	1295.850
617.853	1291.517
617.981	1289.508
618.110	1300.917
618.238	1296.217
618.366	1310.667
618.494	1305.167
618.622	1314.083
618.750	1307.450
618.878	1314.183
619.006	1322.958
619.135	1314.583
619.263	1321.483
619.391	1315.892
619.519	1317.817
619.647	1335.375
619.775	1325.158
619.903	1330.892
620.031	1333.783
620.160	1330.683
620.288	1329.250
620.416	1341.517
620.544	1334.233
620.672	1336.533
620.800	1339.675
620.928	1349.458
621.056	1346.742
621.185	1345.967
621.313	1345.367
621.441	1363.267
621.569	1372.483
621.697	1352.625
621.825	1369.342
621.953	1361.267
622.081	1370.067
622.210	1370.133
622.338	1371.592
622.466	1363.625
622.594	1372.658
622.722	1369.458
622.850	1371.983
622.978	1369.908
623.106	1363.942
623.235	1380.025
623.363	1375.542
623.491	1377.875
623.619	1371.825
623.747	1375.275
623.875	1374.367
624.003	1370.817
624.131	1376.742
624.260	1363.825
624.388	1393.533
624.516	1381.475
624.644	1375.225
624.772	1377.558
624.900	1378.367
625.028	1370.000
625.156	1393.650
625.285	1379.008
625.413	1379.242
625.541	1385.600
625.669	1383.475
625.797	1374.758
625.925	1377.867
626.053	1375.267
626.181	1388.242
626.310	1385.583
626.438	1384.500
626.566	1385.992
626.694	1378.558
626.822	1385.658
626.950	1381.142
627.078	1384.667
627.206	1380.083
627.335	1392.392
627.463	1386.817
627.591	1392.817
627.719	1375.200
627.847	1386.992
627.975	1400.317
628.103	1377.725
628.231	1388.000
628.360	1381.367
628.488	1394.142
628.616	1379.892
628.744	1394.317
628.872	1391.067
629.000	1391.000
629.128	1391.892
629.256	1396.483
629.385	1387.300
629.513	1372.200
629.641	1390.417
629.769	1387.558
629.897	1384.667
630.025	1383.433
630.153	1394.275
630.281	1387.933
630.410	1387.608
630.538	1397.858
630.666	1399.667
630.794	1389.292
630.922	1391.575
631.050	1388.183
631.178	1386.142
631.306	1392.108
631.435	1393.542
631.563	1396.892
631.691	1378.442
631.819	1398.775
631.947	1400.342
632.075	1395.650
632.203	1399.600
632.331	1397.283
632.460	1383.858
632.588	1396.150
632.716	1397.267
632.844	1382.808
632.972	1393.025
633.100	1402.158
633.228	1394.392
633.356	1386.058
633.485	1390.333
633.613	1391.575
633.741	1387.950
633.869	1383.925
633.997	1389.300
634.125	1385.408
634.253	1378.292
634.381	1383.000
634.510	1388.658
634.638	1376.258
634.766	1384.183
634.894	1388.717
635.022	1383.042
635.150	1375.192
635.278	1400.525
635.406	1376.275
635.535	1382.667
635.663	1384.225
635.791	1374.900
635.919	1385.008
636.047	1373.317
636.175	1361.050
636.303	1385.992
636.431	1380.417
636.560	1377.925
636.688	1381.250
636.816	1381.125
636.944	1370.208
637.072	1379.683
637.200	1379.375
637.328	1376.800
637.456	1378.050
637.585	1379.500
637.713	1388.300
637.841	1373.542
637.969	1378.117
638.097	1368.425
638.225	1387.842
638.353	1386.800
638.481	1379.833
638.610	1388.692
638.738	1384.158
638.866	1382.183
638.994	1375.742
639.122	1382.533
639.250	1391.150
639.378	1392.083
639.506	1380.608
639.635	1391.258
639.763	1377.600
639.891	1390.558
640.019	1390.092
640.147	1387.600
640.275	1385.967
640.403	1376.925
640.531	1384.950
640.660	1386.250
640.788	1389.850
640.916	1383.050
641.044	1410.250
641.172	1388.675
641.300	1391.258
641.428	1400.150
641.556	1406.167
641.685	1393.583
641.813	1387.258
641.941	1398.517
642.069	1396.017
642.197	1393.808
642.325	1393.075
642.453	1399.575
642.581	1398.375
642.710	1393.625
642.838	1403.067
642.966	1403.400
643.094	1395.917
643.222	1397.742
643.350	1395.700
643.478	1406.317
643.606	1407.783
643.735	1402.575
643.863	1388.425
643.991	1404.667
644.119	1406.550
644.247	1409.150
644.375	1402.625
644.503	1412.333
644.631	1401.042
644.760	1417.892
644.888	1402.750
645.016	1412.092
645.144	1417.050
645.272	1403.833
645.400	1409.733
645.528	1404.850
645.656	1400.000
645.785	1398.000
645.913	1411.383
646.041	1411.725
646.169	1389.633
646.297	1397.575
646.425	1408.725
646.553	1396.767
646.681	1393.017
646.810	1387.575
646.938	1398.242
647.066	1395.842
647.194	1387.900
647.322	1390.242
647.450	1379.542
647.578	1397.875
647.706	1380.067
647.835	1391.542
647.963	1384.608
648.091	1389.900
648.219	1381.475
648.347	1385.742
648.475	1381.892
648.603	1379.375
648.731	1377.433
648.860	1369.542
648.988	1381.300
649.116	1382.292
649.244	1364.192
649.372	1360.517
649.500	1367.442
649.628	1373.325
649.756	1361.025
649.885	1352.475
650.013	1359.467
650.141	1346.133
650.269	1342.058
650.397	1346.683
650.525	1330.442
650.653	1344.042
650.781	1335.292
650.910	1327.942
651.038	1317.325
651.166	1329.467
651.294	1313.375
651.422	1320.217
651.550	1308.392
651.678	1305.575
651.806	1301.117
651.935	1312.442
652.063	1312.633
652.191	1304.025
652.319	1309.100
652.447	1298.300
652.575	1305.125
652.703	1292.392
652.831	1294.150
652.960	1293.600
653.088	1286.292
653.216	1285.500
653.344	1294.267
653.472	1293.758
653.600	1288.583
653.728	1283.183
653.856	1278.642
653.985	1284.575
654.113	1289.525
654.241	1296.875
654.369	1280.458
654.497	1288.350
654.625	1278.142
654.753	1278.217
654.881	1277.033
655.010	1277.200
655.138	1271.433
655.266	1273.017
655.394	1270.633
655.522	1263.925
655.650	1258.017
655.778	1266.558
655.906	1270.725
656.035	1266.625
656.163	1267.217
656.291	1263.575
656.419	1270.850
656.547	1265.950
656.675	1246.933
656.803	1264.375
656.931	1250.783
657.060	1260.492
657.188	1261.083
657.316	1261.592
657.444	1252.117
657.572	1256.150
657.700	1252.708
657.828	1253.817
657.956	1245.100
658.085	1267.375
658.213	1246.483
658.341	1251.367
658.469	1240.192
658.597	1243.708
658.725	1249.808
658.853	1233.450
658.981	1242.617
659.110	1247.092
659.238	1236.808
659.366	1242.075
659.494	1235.667
659.622	1233.833
659.750	1242.067
659.878	1238.775
660.006	1234.100
660.135	1236.800
660.263	1236.550
660.391	1228.050
