90-140-unpol_at_679.99nm_cut_at_1253.50Y_01.dat
24.01.2024
13:33:47
cut middle at Y: 1253.50
top cursor: 1317 down cursor: 1190 mean of: 127 lines , 2560 datapoints
wavelength(nm)	intensity[arb. units]
515.994	828.118
516.122	788.465
516.250	772.772
516.378	767.780
516.506	769.787
516.635	766.181
516.763	779.457
516.891	780.480
517.019	779.063
517.147	778.228
517.275	776.551
517.403	779.866
517.531	778.638
517.660	781.945
517.788	779.992
517.916	788.756
518.044	779.268
518.172	787.283
518.300	789.835
518.428	778.165
518.556	787.559
518.685	789.213
518.813	790.567
518.941	792.173
519.069	792.661
519.197	785.850
519.325	796.071
519.453	793.252
519.581	802.701
519.710	799.858
519.838	798.693
519.966	807.874
520.094	803.173
520.222	809.795
520.350	812.732
520.478	811.591
520.606	810.835
520.735	814.614
520.863	817.173
520.991	823.622
521.119	819.110
521.247	827.858
521.375	828.724
521.503	836.520
521.631	832.378
521.760	829.717
521.888	836.157
522.016	838.496
522.144	832.661
522.272	840.724
522.400	842.512
522.528	852.992
522.656	851.709
522.785	854.150
522.913	852.976
523.041	847.441
523.169	854.732
523.297	851.016
523.425	859.433
523.553	852.843
523.681	850.394
523.810	865.039
523.938	869.606
524.066	858.520
524.194	867.496
524.322	862.937
524.450	868.433
524.578	861.457
524.706	861.819
524.835	860.543
524.963	868.402
525.091	857.134
525.219	863.087
525.347	849.929
525.475	863.031
525.603	867.961
525.731	867.000
525.860	866.795
525.988	859.063
526.116	856.173
526.244	864.213
526.372	854.843
526.500	863.717
526.628	870.504
526.756	865.598
526.885	860.150
527.013	864.693
527.141	868.071
527.269	858.449
527.397	867.480
527.525	872.213
527.653	865.205
527.781	859.008
527.910	873.000
528.038	878.866
528.166	880.850
528.294	884.047
528.422	878.055
528.550	882.898
528.678	877.850
528.806	884.976
528.935	883.079
529.063	889.110
529.191	883.559
529.319	888.504
529.447	889.055
529.575	887.449
529.703	885.961
529.831	899.520
529.960	894.969
530.088	893.858
530.216	898.906
530.344	898.331
530.472	898.236
530.600	905.843
530.728	902.276
530.856	907.197
530.985	904.913
531.113	892.142
531.241	907.811
531.369	905.378
531.497	905.189
531.625	901.417
531.753	900.173
531.881	911.614
532.010	910.685
532.138	902.252
532.266	903.008
532.394	904.748
532.522	899.016
532.650	905.480
532.778	901.197
532.906	902.882
533.035	911.630
533.163	898.402
533.291	904.000
533.419	890.378
533.547	901.661
533.675	904.283
533.803	894.008
533.931	898.961
534.060	899.937
534.188	902.339
534.316	909.291
534.444	897.740
534.572	901.142
534.700	908.063
534.828	899.039
534.956	912.244
535.085	912.835
535.213	913.748
535.341	916.866
535.469	910.795
535.597	912.260
535.725	918.244
535.853	920.315
535.981	914.291
536.110	928.803
536.238	930.850
536.366	935.024
536.494	920.764
536.622	928.882
536.750	927.150
536.878	937.220
537.006	934.181
537.135	933.118
537.263	938.252
537.391	948.496
537.519	941.906
537.647	952.165
537.775	946.937
537.903	955.236
538.031	949.819
538.160	954.945
538.288	967.528
538.416	957.441
538.544	951.528
538.672	960.449
538.800	963.709
538.928	962.315
539.056	963.299
539.185	970.173
539.313	956.543
539.441	966.339
539.569	969.803
539.697	967.921
539.825	969.756
539.953	963.173
540.081	960.724
540.210	968.583
540.338	966.441
540.466	975.654
540.594	968.189
540.722	962.811
540.850	974.953
540.978	973.984
541.106	974.134
541.235	975.850
541.363	965.457
541.491	971.449
541.619	963.701
541.747	967.094
541.875	973.244
542.003	970.362
542.131	973.606
542.260	979.606
542.388	969.504
542.516	976.906
542.644	981.150
542.772	972.150
542.900	972.535
543.028	976.039
543.156	981.417
543.285	977.882
543.413	980.693
543.541	976.827
543.669	986.465
543.797	984.339
543.925	979.843
544.053	986.409
544.181	978.512
544.310	982.961
544.438	978.520
544.566	983.157
544.694	986.205
544.822	985.976
544.950	978.394
545.078	983.071
545.206	980.780
545.335	982.756
545.463	977.417
545.591	983.795
545.719	980.520
545.847	982.465
545.975	990.606
546.103	976.134
546.231	984.866
546.360	985.213
546.488	984.803
546.616	987.024
546.744	987.969
546.872	982.110
547.000	994.606
547.128	989.874
547.256	991.764
547.385	988.717
547.513	984.236
547.641	987.811
547.769	998.213
547.897	985.654
548.025	988.417
548.153	990.480
548.281	981.252
548.410	983.614
548.538	985.071
548.666	987.244
548.794	984.488
548.922	986.157
549.050	988.819
549.178	987.693
549.306	994.087
549.435	1005.220
549.563	992.299
549.691	988.622
549.819	994.173
549.947	1006.591
550.075	995.134
550.203	1003.646
550.331	985.150
550.460	999.228
550.588	998.803
550.716	1003.929
550.844	984.945
550.972	987.992
551.100	990.748
551.228	990.583
551.356	987.795
551.485	986.583
551.613	985.441
551.741	983.496
551.869	985.291
551.997	976.669
552.125	975.567
552.253	989.252
552.381	976.409
552.510	971.142
552.638	965.008
552.766	977.756
552.894	967.732
553.022	974.299
553.150	960.079
553.278	968.157
553.406	961.213
553.535	963.866
553.663	959.213
553.791	953.669
553.919	957.953
554.047	961.543
554.175	959.622
554.303	954.465
554.431	951.362
554.560	963.087
554.688	957.559
554.816	964.457
554.944	959.693
555.072	954.213
555.200	959.394
555.328	952.071
555.456	967.370
555.585	955.039
555.713	959.260
555.841	965.299
555.969	954.780
556.097	964.394
556.225	967.764
556.353	967.701
556.481	959.118
556.610	966.417
556.738	969.417
556.866	967.591
556.994	965.535
557.122	963.134
557.250	970.559
557.378	971.929
557.506	965.803
557.635	966.370
557.763	965.307
557.891	968.906
558.019	968.520
558.147	968.646
558.275	970.669
558.403	978.126
558.531	971.181
558.660	970.031
558.788	966.913
558.916	968.165
559.044	970.591
559.172	969.780
559.300	985.087
559.428	974.772
559.556	981.480
559.685	979.449
559.813	968.323
559.941	977.638
560.069	974.283
560.197	973.118
560.325	978.134
560.453	972.024
560.581	971.425
560.710	969.811
560.838	975.409
560.966	971.425
561.094	978.213
561.222	970.874
561.350	961.087
561.478	968.717
561.606	970.843
561.735	963.984
561.863	955.220
561.991	959.433
562.119	951.079
562.247	956.780
562.375	962.780
562.503	963.063
562.631	958.165
562.760	949.260
562.888	951.795
563.016	957.331
563.144	951.134
563.272	954.142
563.400	948.213
563.528	946.984
563.656	954.512
563.785	954.677
563.913	944.685
564.041	939.693
564.169	954.740
564.297	952.654
564.425	950.606
564.553	953.906
564.681	955.890
564.810	952.189
564.938	951.811
565.066	948.528
565.194	953.976
565.322	943.882
565.450	945.622
565.578	955.724
565.706	942.937
565.835	948.630
565.963	943.031
566.091	944.937
566.219	951.803
566.347	945.929
566.475	953.079
566.603	956.071
566.731	953.425
566.860	951.331
566.988	959.882
567.116	959.780
567.244	954.071
567.372	964.071
567.500	969.551
567.628	961.142
567.756	964.654
567.885	968.976
568.013	968.150
568.141	967.858
568.269	965.717
568.397	967.661
568.525	967.969
568.653	967.583
568.781	967.693
568.910	985.228
569.038	970.953
569.166	965.417
569.294	971.213
569.422	981.346
569.550	970.811
569.678	981.795
569.806	970.465
569.935	978.701
570.063	979.890
570.191	981.472
570.319	983.606
570.447	982.417
570.575	985.276
570.703	990.126
570.831	992.197
570.960	989.047
571.088	990.394
571.216	987.480
571.344	984.520
571.472	983.205
571.600	994.709
571.728	984.787
571.856	985.803
571.985	993.866
572.113	990.654
572.241	997.024
572.369	1001.764
572.497	987.339
572.625	999.709
572.753	991.622
572.881	1001.024
573.010	994.370
573.138	1006.480
573.266	1003.740
573.394	1002.220
573.522	995.386
573.650	995.535
573.778	995.268
573.906	1000.150
574.035	997.795
574.163	1002.811
574.291	992.913
574.419	996.331
574.547	1002.661
574.675	1000.000
574.803	1002.614
574.931	991.543
575.060	1005.433
575.188	996.142
575.316	995.142
575.444	994.551
575.572	1001.346
575.700	988.969
575.828	994.984
575.956	1003.016
576.085	990.055
576.213	996.583
576.341	985.646
576.469	996.079
576.597	982.945
576.725	997.622
576.853	987.220
576.981	988.748
577.110	984.850
577.238	993.157
577.366	979.488
577.494	981.953
577.622	980.843
577.750	989.000
577.878	976.882
578.006	990.701
578.135	981.008
578.263	972.394
578.391	993.559
578.519	980.937
578.647	984.929
578.775	981.685
578.903	973.236
579.031	977.417
579.160	976.126
579.288	970.551
579.416	970.795
579.544	977.016
579.672	973.441
579.800	980.630
579.928	977.213
580.056	974.811
580.185	968.504
580.313	977.402
580.441	965.102
580.569	970.165
580.697	966.528
580.825	974.472
580.953	973.417
581.081	972.638
581.210	975.228
581.338	972.575
581.466	977.646
581.594	983.055
581.722	975.087
581.850	975.409
581.978	988.118
582.106	977.937
582.235	987.047
582.363	977.850
582.491	981.008
582.619	986.520
582.747	984.591
582.875	979.638
583.003	991.559
583.131	988.276
583.260	984.764
583.388	996.346
583.516	996.220
583.644	990.929
583.772	990.323
583.900	1003.701
584.028	1004.717
584.156	994.339
584.285	1002.701
584.413	1007.441
584.541	1010.402
584.669	1010.906
584.797	1008.283
584.925	1004.520
585.053	1015.827
585.181	1013.307
585.310	1014.512
585.438	1013.622
585.566	1016.079
585.694	1021.268
585.822	1030.669
585.950	1015.953
586.078	1022.740
586.206	1026.496
586.335	1037.724
586.463	1026.024
586.591	1037.953
586.719	1024.551
586.847	1022.937
586.975	1033.732
587.103	1037.024
587.231	1027.433
587.360	1030.260
587.488	1035.598
587.616	1035.283
587.744	1036.953
587.872	1037.630
588.000	1026.787
588.128	1043.063
588.256	1040.079
588.385	1028.165
588.513	1037.504
588.641	1034.315
588.769	1037.559
588.897	1043.157
589.025	1030.945
589.153	1031.126
589.281	1021.394
589.410	1030.929
589.538	1031.961
589.666	1035.228
589.794	1034.409
589.922	1046.575
590.050	1041.969
590.178	1029.402
590.306	1029.315
590.435	1031.591
590.563	1022.567
590.691	1032.102
590.819	1028.244
590.947	1040.685
591.075	1028.063
591.203	1027.764
591.331	1031.858
591.460	1034.213
591.588	1022.701
591.716	1040.142
591.844	1033.945
591.972	1035.551
592.100	1025.480
592.228	1032.213
592.356	1029.126
592.485	1026.701
592.613	1034.969
592.741	1036.220
592.869	1031.614
592.997	1031.614
593.125	1048.008
593.253	1043.055
593.381	1037.157
593.510	1039.173
593.638	1038.063
593.766	1036.890
593.894	1038.685
594.022	1039.780
594.150	1040.606
594.278	1040.079
594.406	1039.252
594.535	1030.874
594.663	1044.921
594.791	1041.929
594.919	1042.165
595.047	1047.370
595.175	1043.811
595.303	1035.039
595.431	1049.079
595.560	1057.118
595.688	1051.787
595.816	1048.094
595.944	1052.346
596.072	1054.433
596.200	1055.354
596.328	1045.724
596.456	1066.118
596.585	1052.835
596.713	1065.220
596.841	1047.087
596.969	1054.850
597.097	1055.323
597.225	1055.126
597.353	1063.654
597.481	1055.441
597.610	1062.024
597.738	1063.031
597.866	1048.898
597.994	1060.323
598.122	1079.346
598.250	1059.961
598.378	1054.425
598.506	1068.008
598.635	1056.630
598.763	1064.795
598.891	1062.000
599.019	1058.283
599.147	1050.512
599.275	1060.685
599.403	1062.110
599.531	1062.008
599.660	1066.339
599.788	1063.039
599.916	1068.961
600.044	1065.000
600.172	1072.724
600.300	1063.937
600.428	1075.323
600.556	1067.047
600.685	1071.126
600.813	1068.748
600.941	1079.819
601.069	1079.866
601.197	1071.016
601.325	1071.433
601.453	1065.921
601.581	1081.512
601.710	1079.874
601.838	1077.173
601.966	1079.622
602.094	1073.362
602.222	1077.016
602.350	1076.063
602.478	1078.087
602.606	1094.827
602.735	1081.220
602.863	1095.709
602.991	1091.417
603.119	1091.362
603.247	1091.189
603.375	1086.504
603.503	1088.992
603.631	1093.173
603.760	1092.307
603.888	1095.016
604.016	1107.559
604.144	1096.535
604.272	1100.260
604.400	1098.236
604.528	1092.031
604.656	1100.654
604.785	1104.567
604.913	1103.937
605.041	1113.953
605.169	1113.402
605.297	1100.315
605.425	1114.543
605.553	1117.449
605.681	1105.976
605.810	1101.126
605.938	1106.394
606.066	1110.724
606.194	1116.732
606.322	1108.016
606.450	1111.921
606.578	1115.748
606.706	1111.331
606.835	1109.157
606.963	1114.795
607.091	1113.488
607.219	1112.929
607.347	1104.402
607.475	1122.874
607.603	1115.047
607.731	1114.535
607.860	1109.299
607.988	1108.921
608.116	1107.102
608.244	1111.031
608.372	1100.315
608.500	1118.465
608.628	1105.402
608.756	1106.260
608.885	1107.315
609.013	1110.827
609.141	1106.551
609.269	1103.740
609.397	1112.520
609.525	1102.213
609.653	1102.323
609.781	1102.087
609.910	1101.717
610.038	1093.181
610.166	1099.315
610.294	1101.591
610.422	1103.575
610.550	1094.898
610.678	1095.591
610.806	1094.984
610.935	1096.276
611.063	1097.228
611.191	1086.323
611.319	1089.370
611.447	1084.819
611.575	1090.354
611.703	1087.630
611.831	1088.134
611.960	1091.803
612.088	1094.016
612.216	1093.118
612.344	1091.740
612.472	1075.008
612.600	1091.465
612.728	1075.646
612.856	1080.898
612.985	1078.685
613.113	1079.465
613.241	1087.591
613.369	1075.386
613.497	1086.079
613.625	1081.031
613.753	1076.969
613.881	1079.244
614.010	1078.449
614.138	1078.087
614.266	1072.441
614.394	1068.236
614.522	1071.055
614.650	1080.598
614.778	1071.843
614.906	1085.291
615.035	1079.449
615.163	1063.787
615.291	1070.835
615.419	1081.102
615.547	1068.874
615.675	1077.551
615.803	1071.386
615.931	1081.370
616.060	1071.102
616.188	1070.449
616.316	1065.669
616.444	1069.031
616.572	1073.693
616.700	1071.591
616.828	1084.189
616.956	1087.441
617.085	1091.929
617.213	1080.520
617.341	1081.465
617.469	1080.370
617.597	1086.528
617.725	1087.142
617.853	1065.748
617.981	1081.354
618.110	1087.976
618.238	1083.772
618.366	1087.819
618.494	1087.898
618.622	1079.921
618.750	1077.189
618.878	1080.449
619.006	1088.307
619.135	1090.583
619.263	1091.307
619.391	1092.268
619.519	1088.606
619.647	1103.189
619.775	1089.850
619.903	1091.685
620.031	1100.827
620.160	1101.780
620.288	1097.346
620.416	1109.299
620.544	1105.378
620.672	1108.213
620.800	1102.181
620.928	1107.630
621.056	1103.709
621.185	1102.386
621.313	1107.984
621.441	1115.457
621.569	1125.409
621.697	1105.787
621.825	1117.409
621.953	1103.472
622.081	1112.929
622.210	1100.063
622.338	1115.157
622.466	1101.843
622.594	1113.323
622.722	1122.693
622.850	1112.252
622.978	1115.906
623.106	1119.850
623.235	1117.512
623.363	1118.024
623.491	1118.378
623.619	1110.614
623.747	1116.370
623.875	1118.181
624.003	1112.000
624.131	1112.929
624.260	1106.740
624.388	1107.315
624.516	1117.685
624.644	1106.197
624.772	1109.732
624.900	1108.583
625.028	1106.890
625.156	1123.134
625.285	1104.961
625.413	1109.181
625.541	1102.614
625.669	1113.874
625.797	1106.031
625.925	1108.331
626.053	1103.976
626.181	1115.394
626.310	1111.819
626.438	1109.488
626.566	1093.724
626.694	1097.205
626.822	1094.433
626.950	1107.244
627.078	1098.008
627.206	1095.307
627.335	1107.559
627.463	1100.858
627.591	1103.913
627.719	1103.213
627.847	1106.843
627.975	1098.504
628.103	1087.496
628.231	1101.984
628.360	1093.465
628.488	1093.142
628.616	1094.480
628.744	1094.787
628.872	1091.528
629.000	1091.055
629.128	1090.638
629.256	1104.535
629.385	1094.866
629.513	1091.307
629.641	1097.016
629.769	1085.173
629.897	1089.268
630.025	1090.110
630.153	1094.724
630.281	1089.197
630.410	1073.748
630.538	1095.551
630.666	1083.740
630.794	1090.055
630.922	1084.874
631.050	1073.945
631.178	1077.709
631.306	1087.441
631.435	1083.197
631.563	1080.614
631.691	1077.268
631.819	1072.756
631.947	1089.614
632.075	1075.197
632.203	1079.835
632.331	1086.732
632.460	1070.646
632.588	1079.087
632.716	1083.079
632.844	1071.394
632.972	1083.157
633.100	1081.740
633.228	1077.055
633.356	1072.094
633.485	1071.039
633.613	1070.276
633.741	1075.472
633.869	1068.787
633.997	1064.874
634.125	1071.543
634.253	1057.654
634.381	1058.858
634.510	1074.252
634.638	1052.071
634.766	1055.787
634.894	1058.346
635.022	1059.866
635.150	1055.039
635.278	1063.008
635.406	1054.157
635.535	1055.945
635.663	1054.850
635.791	1049.236
635.919	1056.354
636.047	1049.614
636.175	1046.378
636.303	1050.693
636.431	1050.685
636.560	1055.441
636.688	1045.787
636.816	1044.417
636.944	1032.850
637.072	1049.638
637.200	1038.165
637.328	1038.764
637.456	1049.339
637.585	1040.819
637.713	1049.559
637.841	1036.598
637.969	1038.307
638.097	1034.260
638.225	1044.031
638.353	1040.370
638.481	1037.087
638.610	1042.370
638.738	1034.843
638.866	1031.638
638.994	1032.724
639.122	1035.173
639.250	1039.181
639.378	1037.504
639.506	1023.850
639.635	1049.394
639.763	1023.488
639.891	1037.417
640.019	1035.331
640.147	1023.268
640.275	1026.283
640.403	1027.165
640.531	1024.764
640.660	1033.181
640.788	1028.890
640.916	1021.307
641.044	1040.551
641.172	1028.724
641.300	1031.488
641.428	1031.843
641.556	1037.307
641.685	1028.638
641.813	1028.220
641.941	1029.173
642.069	1032.543
642.197	1026.299
642.325	1021.354
642.453	1034.425
642.581	1026.315
642.710	1019.102
642.838	1024.874
642.966	1025.504
643.094	1027.961
643.222	1023.976
643.350	1014.213
643.478	1018.945
643.606	1023.685
643.735	1020.685
643.863	1012.268
643.991	1025.016
644.119	1029.787
644.247	1023.661
644.375	1021.283
644.503	1024.780
644.631	1020.165
644.760	1025.315
644.888	1024.638
645.016	1020.528
645.144	1028.244
645.272	1010.213
645.400	1022.906
645.528	1013.063
645.656	1009.102
645.785	1019.094
645.913	1018.709
646.041	1018.890
646.169	998.307
646.297	1004.433
646.425	1015.882
646.553	997.622
646.681	1000.874
646.810	1000.346
646.938	1000.291
647.066	993.677
647.194	1002.260
647.322	994.244
647.450	984.535
647.578	1003.976
647.706	996.567
647.835	1003.858
647.963	995.016
648.091	998.063
648.219	994.866
648.347	981.984
648.475	990.890
648.603	986.291
648.731	984.850
648.860	977.488
648.988	982.843
649.116	974.717
649.244	973.110
649.372	972.417
649.500	968.472
649.628	971.417
649.756	961.622
649.885	960.386
650.013	956.039
650.141	954.630
650.269	950.945
650.397	954.063
650.525	956.961
650.653	958.449
650.781	936.157
650.910	941.339
651.038	934.787
651.166	943.677
651.294	936.244
651.422	935.480
651.550	922.929
651.678	923.110
651.806	926.205
651.935	926.724
652.063	914.449
652.191	912.756
652.319	927.417
652.447	917.173
652.575	913.890
652.703	914.756
652.831	911.953
652.960	905.835
653.088	909.488
653.216	898.449
653.344	894.055
653.472	905.701
653.600	894.630
653.728	892.701
653.856	887.331
653.985	893.803
654.113	890.079
654.241	894.346
654.369	885.717
654.497	891.323
654.625	890.787
654.753	880.882
654.881	880.496
655.010	885.921
655.138	872.622
655.266	873.102
655.394	871.614
655.522	871.157
655.650	861.433
655.778	863.409
655.906	871.197
656.035	867.882
656.163	857.772
656.291	859.913
656.419	858.976
656.547	857.472
656.675	857.268
656.803	860.661
656.931	859.268
657.060	860.378
657.188	854.157
657.316	856.945
657.444	843.575
657.572	852.417
657.700	851.071
657.828	847.543
657.956	849.756
658.085	858.268
658.213	842.953
658.341	845.394
658.469	846.795
658.597	847.339
658.725	849.260
658.853	840.299
658.981	833.236
659.110	840.472
659.238	843.512
659.366	836.866
659.494	830.937
659.622	835.717
659.750	840.732
659.878	832.835
660.006	832.756
660.135	829.528
660.263	819.772
660.391	819.976
660.519	832.283
660.647	818.622
660.775	824.835
660.903	822.409
661.031	817.638
661.160	818.913
