90-100-unpol_at_679.99nm_cut_at_1250.00Y_01.dat
24.01.2024
13:29:18
cut middle at Y: 1250.00
top cursor: 1310 down cursor: 1190 mean of: 120 lines , 2560 datapoints
wavelength(nm)	intensity[arb. units]
515.994	1212.300
516.122	1153.100
516.250	1128.858
516.378	1118.733
516.506	1116.450
516.635	1128.883
516.763	1135.475
516.891	1142.942
517.019	1132.192
517.147	1136.700
517.275	1137.058
517.403	1136.892
517.531	1133.417
517.660	1139.175
517.788	1135.067
517.916	1144.383
518.044	1137.167
518.172	1138.867
518.300	1152.467
518.428	1142.742
518.556	1145.250
518.685	1140.283
518.813	1146.308
518.941	1154.058
519.069	1157.208
519.197	1154.750
519.325	1163.942
519.453	1154.283
519.581	1169.467
519.710	1157.633
519.838	1167.458
519.966	1162.483
520.094	1167.283
520.222	1168.467
520.350	1184.575
520.478	1183.525
520.606	1186.658
520.735	1179.925
520.863	1185.900
520.991	1191.767
521.119	1195.050
521.247	1192.992
521.375	1207.183
521.503	1212.058
521.631	1218.708
521.760	1212.892
521.888	1210.092
522.016	1216.417
522.144	1219.067
522.272	1227.483
522.400	1227.950
522.528	1234.750
522.656	1234.617
522.785	1248.908
522.913	1241.558
523.041	1242.667
523.169	1235.758
523.297	1243.925
523.425	1249.142
523.553	1251.017
523.681	1250.508
523.810	1257.250
523.938	1266.483
524.066	1260.483
524.194	1261.542
524.322	1252.333
524.450	1255.058
524.578	1256.967
524.706	1263.042
524.835	1258.733
524.963	1260.867
525.091	1254.558
525.219	1267.008
525.347	1254.442
525.475	1266.392
525.603	1263.992
525.731	1266.767
525.860	1271.133
525.988	1267.225
526.116	1259.625
526.244	1274.400
526.372	1265.325
526.500	1264.958
526.628	1280.792
526.756	1268.358
526.885	1263.275
527.013	1259.200
527.141	1271.183
527.269	1271.925
527.397	1271.892
527.525	1276.192
527.653	1262.867
527.781	1267.250
527.910	1276.075
528.038	1279.283
528.166	1283.775
528.294	1276.192
528.422	1274.283
528.550	1289.117
528.678	1292.350
528.806	1290.192
528.935	1305.650
529.063	1286.308
529.191	1296.883
529.319	1302.708
529.447	1305.192
529.575	1308.233
529.703	1297.325
529.831	1311.133
529.960	1303.233
530.088	1309.608
530.216	1315.225
530.344	1318.525
530.472	1318.183
530.600	1319.517
530.728	1323.025
530.856	1325.458
530.985	1319.367
531.113	1323.992
531.241	1325.758
531.369	1337.033
531.497	1326.092
531.625	1323.783
531.753	1331.192
531.881	1335.408
532.010	1325.533
532.138	1317.367
532.266	1321.950
532.394	1326.883
532.522	1312.792
532.650	1327.883
532.778	1337.717
532.906	1316.317
533.035	1323.492
533.163	1319.400
533.291	1322.383
533.419	1310.617
533.547	1322.500
533.675	1329.425
533.803	1314.383
533.931	1318.367
534.060	1319.267
534.188	1317.833
534.316	1318.275
534.444	1317.617
534.572	1319.142
534.700	1317.908
534.828	1316.475
534.956	1326.150
535.085	1321.033
535.213	1318.675
535.341	1333.792
535.469	1337.558
535.597	1336.708
535.725	1344.983
535.853	1341.958
535.981	1342.283
536.110	1345.175
536.238	1349.000
536.366	1354.192
536.494	1347.950
536.622	1358.742
536.750	1363.775
536.878	1365.150
537.006	1378.025
537.135	1366.792
537.263	1385.692
537.391	1395.383
537.519	1379.925
537.647	1392.300
537.775	1385.050
537.903	1390.742
538.031	1391.942
538.160	1396.642
538.288	1398.975
538.416	1408.717
538.544	1395.492
538.672	1413.542
538.800	1417.283
538.928	1419.000
539.056	1412.142
539.185	1421.767
539.313	1419.592
539.441	1417.900
539.569	1423.875
539.697	1420.142
539.825	1434.708
539.953	1419.667
540.081	1415.492
540.210	1430.725
540.338	1429.942
540.466	1421.742
540.594	1431.450
540.722	1420.525
540.850	1438.067
540.978	1434.050
541.106	1428.358
541.235	1430.542
541.363	1415.258
541.491	1429.717
541.619	1422.900
541.747	1424.717
541.875	1428.792
542.003	1427.475
542.131	1434.133
542.260	1438.625
542.388	1430.333
542.516	1431.250
542.644	1446.142
542.772	1436.550
542.900	1438.133
543.028	1439.133
543.156	1445.458
543.285	1434.942
543.413	1438.583
543.541	1451.817
543.669	1453.833
543.797	1447.333
543.925	1437.433
544.053	1453.233
544.181	1450.258
544.310	1447.750
544.438	1449.817
544.566	1465.733
544.694	1461.842
544.822	1452.825
544.950	1457.350
545.078	1445.917
545.206	1458.875
545.335	1464.642
545.463	1460.000
545.591	1443.233
545.719	1459.925
545.847	1468.142
545.975	1460.725
546.103	1456.517
546.231	1467.067
546.360	1457.683
546.488	1458.067
546.616	1462.033
546.744	1469.242
546.872	1468.017
547.000	1473.725
547.128	1470.358
547.256	1471.933
547.385	1461.867
547.513	1465.050
547.641	1470.425
547.769	1478.867
547.897	1473.333
548.025	1469.900
548.153	1470.642
548.281	1471.792
548.410	1465.192
548.538	1469.225
548.666	1472.300
548.794	1462.542
548.922	1479.642
549.050	1479.408
549.178	1488.175
549.306	1480.325
549.435	1481.042
549.563	1472.000
549.691	1473.192
549.819	1487.142
549.947	1484.333
550.075	1482.825
550.203	1479.967
550.331	1486.508
550.460	1476.092
550.588	1480.667
550.716	1492.133
550.844	1486.608
550.972	1483.467
551.100	1483.192
551.228	1483.692
551.356	1478.133
551.485	1478.242
551.613	1469.892
551.741	1464.950
551.869	1470.117
551.997	1471.267
552.125	1467.133
552.253	1468.042
552.381	1462.808
552.510	1460.083
552.638	1440.692
552.766	1459.575
552.894	1449.192
553.022	1438.133
553.150	1452.283
553.278	1449.725
553.406	1446.642
553.535	1434.183
553.663	1438.400
553.791	1447.392
553.919	1440.567
554.047	1434.583
554.175	1429.408
554.303	1437.183
554.431	1422.450
554.560	1424.508
554.688	1444.092
554.816	1423.417
554.944	1437.500
555.072	1432.233
555.200	1438.375
555.328	1429.567
555.456	1441.133
555.585	1437.592
555.713	1431.850
555.841	1438.500
555.969	1438.617
556.097	1442.358
556.225	1442.558
556.353	1449.650
556.481	1440.900
556.610	1441.975
556.738	1457.017
556.866	1446.383
556.994	1442.817
557.122	1435.842
557.250	1451.200
557.378	1453.533
557.506	1454.825
557.635	1459.067
557.763	1447.700
557.891	1469.417
558.019	1462.017
558.147	1459.000
558.275	1463.808
558.403	1474.600
558.531	1465.317
558.660	1472.608
558.788	1471.800
558.916	1471.567
559.044	1470.717
559.172	1462.183
559.300	1467.500
559.428	1476.200
559.556	1468.333
559.685	1476.308
559.813	1469.892
559.941	1473.542
560.069	1475.008
560.197	1474.433
560.325	1477.467
560.453	1469.458
560.581	1484.058
560.710	1475.908
560.838	1478.575
560.966	1476.567
561.094	1481.942
561.222	1471.283
561.350	1478.542
561.478	1468.692
561.606	1474.983
561.735	1467.575
561.863	1468.025
561.991	1470.083
562.119	1460.350
562.247	1468.108
562.375	1468.908
562.503	1467.850
562.631	1452.550
562.760	1460.092
562.888	1463.375
563.016	1466.808
563.144	1462.483
563.272	1448.792
563.400	1446.725
563.528	1444.592
563.656	1462.158
563.785	1456.167
563.913	1457.067
564.041	1448.483
564.169	1455.767
564.297	1450.817
564.425	1451.192
564.553	1475.875
564.681	1445.067
564.810	1457.192
564.938	1443.333
565.066	1439.383
565.194	1461.408
565.322	1454.700
565.450	1450.183
565.578	1464.358
565.706	1448.025
565.835	1470.042
565.963	1455.983
566.091	1451.000
566.219	1468.892
566.347	1460.133
566.475	1461.183
566.603	1463.992
566.731	1458.542
566.860	1466.475
566.988	1466.142
567.116	1483.483
567.244	1472.083
567.372	1491.050
567.500	1481.750
567.628	1468.542
567.756	1472.533
567.885	1486.183
568.013	1499.933
568.141	1494.817
568.269	1486.525
568.397	1487.100
568.525	1475.950
568.653	1500.533
568.781	1496.950
568.910	1509.850
569.038	1495.925
569.166	1502.600
569.294	1495.417
569.422	1515.342
569.550	1499.983
569.678	1501.417
569.806	1512.850
569.935	1517.025
570.063	1530.350
570.191	1524.575
570.319	1519.575
570.447	1514.742
570.575	1518.750
570.703	1522.767
570.831	1535.225
570.960	1537.842
571.088	1529.958
571.216	1530.242
571.344	1533.008
571.472	1530.075
571.600	1543.033
571.728	1543.667
571.856	1537.483
571.985	1535.842
572.113	1557.433
572.241	1552.142
572.369	1565.325
572.497	1547.908
572.625	1556.417
572.753	1545.150
572.881	1549.117
573.010	1554.575
573.138	1568.975
573.266	1563.150
573.394	1570.517
573.522	1554.142
573.650	1570.367
573.778	1570.883
573.906	1560.925
574.035	1566.633
574.163	1570.700
574.291	1578.808
574.419	1571.567
574.547	1576.508
574.675	1575.325
574.803	1574.975
574.931	1557.533
575.060	1579.442
575.188	1571.350
575.316	1568.775
575.444	1569.050
575.572	1570.525
575.700	1574.117
575.828	1583.550
575.956	1581.658
576.085	1570.983
576.213	1569.708
576.341	1566.583
576.469	1576.825
576.597	1560.317
576.725	1566.833
576.853	1558.267
576.981	1561.025
577.110	1566.725
577.238	1582.658
577.366	1568.042
577.494	1566.308
577.622	1568.458
577.750	1557.583
577.878	1557.958
578.006	1572.200
578.135	1564.458
578.263	1566.067
578.391	1582.275
578.519	1565.767
578.647	1569.450
578.775	1561.500
578.903	1553.525
579.031	1566.008
579.160	1560.550
579.288	1558.417
579.416	1554.692
579.544	1560.175
579.672	1567.933
579.800	1570.392
579.928	1551.058
580.056	1554.758
580.185	1549.575
580.313	1565.108
580.441	1571.958
580.569	1556.517
580.697	1561.458
580.825	1561.750
580.953	1576.400
581.081	1568.817
581.210	1577.317
581.338	1576.892
581.466	1578.642
581.594	1578.742
581.722	1579.058
581.850	1569.492
581.978	1576.058
582.106	1577.900
582.235	1579.483
582.363	1584.008
582.491	1584.100
582.619	1584.617
582.747	1599.358
582.875	1597.625
583.003	1593.850
583.131	1606.125
583.260	1611.908
583.388	1607.817
583.516	1613.233
583.644	1624.625
583.772	1623.117
583.900	1626.417
584.028	1640.933
584.156	1637.058
584.285	1639.883
584.413	1649.008
584.541	1649.725
584.669	1653.583
584.797	1652.075
584.925	1647.783
585.053	1660.025
585.181	1666.008
585.310	1666.508
585.438	1661.258
585.566	1670.942
585.694	1674.292
585.822	1686.725
585.950	1673.992
586.078	1691.867
586.206	1687.583
586.335	1690.783
586.463	1707.342
586.591	1708.708
586.719	1700.100
586.847	1715.325
586.975	1707.358
587.103	1715.033
587.231	1703.942
587.360	1710.142
587.488	1730.208
587.616	1715.675
587.744	1730.308
587.872	1722.633
588.000	1720.875
588.128	1735.942
588.256	1732.317
588.385	1723.075
588.513	1726.142
588.641	1718.250
588.769	1734.925
588.897	1724.425
589.025	1727.358
589.153	1728.833
589.281	1729.650
589.410	1735.117
589.538	1741.575
589.666	1737.642
589.794	1722.433
589.922	1748.742
590.050	1752.750
590.178	1737.508
590.306	1742.242
590.435	1746.325
590.563	1728.092
590.691	1727.567
590.819	1737.408
590.947	1759.217
591.075	1741.408
591.203	1734.800
591.331	1751.450
591.460	1745.967
591.588	1739.600
591.716	1753.583
591.844	1753.433
591.972	1751.367
592.100	1737.875
592.228	1752.342
592.356	1752.183
592.485	1758.200
592.613	1748.925
592.741	1763.933
592.869	1746.425
592.997	1773.992
593.125	1760.867
593.253	1776.133
593.381	1773.267
593.510	1783.358
593.638	1766.025
593.766	1768.975
593.894	1775.158
594.022	1777.608
594.150	1776.933
594.278	1791.792
594.406	1786.808
594.535	1777.358
594.663	1785.075
594.791	1798.683
594.919	1795.458
595.047	1800.492
595.175	1807.250
595.303	1800.858
595.431	1802.983
595.560	1809.642
595.688	1815.967
595.816	1814.592
595.944	1816.758
596.072	1831.850
596.200	1826.867
596.328	1826.183
596.456	1824.008
596.585	1825.808
596.713	1847.758
596.841	1835.658
596.969	1839.892
597.097	1848.092
597.225	1856.858
597.353	1859.267
597.481	1856.067
597.610	1855.550
597.738	1859.392
597.866	1852.192
597.994	1876.275
598.122	1877.750
598.250	1870.642
598.378	1868.900
598.506	1877.900
598.635	1875.242
598.763	1876.850
598.891	1884.950
599.019	1885.042
599.147	1881.033
599.275	1887.025
599.403	1882.567
599.531	1890.183
599.660	1895.867
599.788	1903.092
599.916	1889.575
600.044	1913.592
600.172	1910.117
600.300	1911.383
600.428	1908.567
600.556	1914.700
600.685	1928.492
600.813	1919.975
600.941	1949.367
601.069	1928.758
601.197	1938.408
601.325	1922.908
601.453	1928.133
601.581	1931.933
601.710	1954.358
601.838	1962.175
601.966	1957.200
602.094	1961.117
602.222	1970.850
602.350	1953.492
602.478	1966.092
602.606	1983.150
602.735	1965.858
602.863	1986.942
602.991	2003.425
603.119	1985.617
603.247	1991.950
603.375	1986.800
603.503	1988.533
603.631	2008.433
603.760	2020.775
603.888	2023.975
604.016	2027.400
604.144	2023.483
604.272	2027.925
604.400	2039.017
604.528	2031.492
604.656	2049.658
604.785	2052.842
604.913	2042.000
605.041	2057.983
605.169	2069.417
605.297	2063.658
605.425	2074.375
605.553	2083.533
605.681	2055.058
605.810	2096.267
605.938	2085.992
606.066	2078.575
606.194	2094.750
606.322	2086.983
606.450	2094.567
606.578	2091.367
606.706	2098.267
606.835	2108.358
606.963	2119.325
607.091	2114.508
607.219	2115.258
607.347	2109.125
607.475	2126.942
607.603	2125.283
607.731	2115.575
607.860	2120.167
607.988	2122.567
608.116	2119.333
608.244	2125.450
608.372	2128.792
608.500	2129.533
608.628	2122.700
608.756	2130.350
608.885	2136.500
609.013	2141.108
609.141	2124.142
609.269	2128.700
609.397	2121.300
609.525	2144.325
609.653	2143.275
609.781	2129.925
609.910	2138.383
610.038	2139.725
610.166	2140.633
610.294	2130.500
610.422	2148.042
610.550	2139.567
610.678	2151.708
610.806	2139.158
610.935	2155.108
611.063	2147.267
611.191	2146.108
611.319	2140.292
611.447	2139.217
611.575	2150.433
611.703	2137.250
611.831	2162.133
611.960	2131.875
612.088	2149.117
612.216	2149.450
612.344	2155.617
612.472	2142.583
612.600	2148.733
612.728	2141.358
612.856	2158.083
612.985	2146.925
613.113	2161.775
613.241	2172.908
613.369	2151.908
613.497	2158.025
613.625	2175.175
613.753	2163.617
613.881	2167.525
614.010	2173.475
614.138	2180.933
614.266	2164.333
614.394	2163.292
614.522	2170.058
614.650	2182.333
614.778	2176.133
614.906	2192.817
615.035	2185.500
615.163	2171.792
615.291	2195.633
615.419	2176.833
615.547	2182.925
615.675	2198.892
615.803	2205.575
615.931	2211.917
616.060	2197.350
616.188	2230.300
616.316	2201.550
616.444	2206.558
616.572	2208.433
616.700	2214.792
616.828	2239.683
616.956	2239.467
617.085	2249.167
617.213	2236.350
617.341	2238.792
617.469	2252.975
617.597	2258.775
617.725	2258.233
617.853	2253.225
617.981	2258.175
618.110	2279.300
618.238	2277.942
618.366	2278.808
618.494	2289.292
618.622	2286.483
618.750	2289.100
618.878	2300.808
619.006	2301.733
619.135	2321.033
619.263	2313.100
619.391	2314.550
619.519	2311.550
619.647	2333.458
619.775	2334.775
619.903	2335.475
620.031	2342.167
620.160	2345.133
620.288	2353.383
620.416	2372.892
620.544	2356.425
620.672	2390.233
620.800	2377.575
620.928	2391.108
621.056	2402.117
621.185	2387.992
621.313	2388.025
621.441	2408.975
621.569	2414.050
621.697	2406.133
621.825	2429.917
621.953	2413.092
622.081	2441.767
622.210	2443.500
622.338	2437.675
622.466	2446.983
622.594	2459.325
622.722	2452.875
622.850	2469.100
622.978	2502.808
623.106	2481.458
623.235	2484.000
623.363	2497.508
623.491	2478.867
623.619	2485.000
623.747	2490.083
623.875	2509.792
624.003	2487.633
624.131	2510.375
624.260	2494.000
624.388	2521.667
624.516	2541.492
624.644	2513.892
624.772	2533.683
624.900	2524.325
625.028	2526.575
625.156	2554.475
625.285	2525.675
625.413	2555.933
625.541	2540.817
625.669	2542.500
625.797	2550.175
625.925	2553.800
626.053	2555.758
626.181	2565.358
626.310	2573.458
626.438	2553.542
626.566	2561.042
626.694	2570.167
626.822	2577.050
626.950	2588.042
627.078	2581.650
627.206	2568.933
627.335	2584.458
627.463	2583.775
627.591	2606.742
627.719	2591.225
627.847	2594.042
627.975	2606.792
628.103	2597.983
628.231	2607.983
628.360	2599.700
628.488	2603.642
628.616	2597.625
628.744	2605.892
628.872	2607.700
629.000	2613.875
629.128	2603.725
629.256	2621.450
629.385	2638.842
629.513	2625.233
629.641	2642.117
629.769	2634.942
629.897	2645.442
630.025	2635.158
630.153	2668.792
630.281	2654.317
630.410	2643.367
630.538	2665.133
630.666	2654.008
630.794	2669.183
630.922	2680.292
631.050	2650.642
631.178	2669.867
631.306	2673.567
631.435	2677.592
631.563	2693.900
631.691	2688.492
631.819	2710.783
631.947	2690.800
632.075	2682.667
632.203	2714.317
632.331	2697.192
632.460	2696.258
632.588	2700.758
632.716	2715.842
632.844	2740.533
632.972	2707.308
633.100	2708.767
633.228	2731.425
633.356	2707.633
633.485	2719.492
633.613	2721.500
633.741	2725.317
633.869	2729.900
633.997	2740.025
634.125	2763.950
634.253	2727.342
634.381	2743.792
634.510	2740.742
634.638	2736.733
634.766	2762.550
634.894	2742.033
635.022	2737.867
635.150	2761.217
635.278	2768.717
635.406	2757.975
635.535	2755.658
635.663	2789.267
635.791	2737.100
635.919	2766.525
636.047	2761.650
636.175	2766.083
636.303	2773.608
636.431	2788.142
636.560	2790.900
636.688	2765.033
636.816	2780.658
636.944	2780.017
637.072	2796.408
637.200	2795.942
637.328	2802.017
637.456	2799.342
637.585	2803.817
637.713	2823.292
637.841	2784.275
637.969	2815.533
638.097	2795.433
638.225	2831.550
638.353	2839.108
638.481	2829.842
638.610	2835.558
638.738	2830.958
638.866	2824.683
638.994	2846.833
639.122	2842.817
639.250	2831.842
639.378	2866.708
639.506	2845.508
639.635	2878.217
639.763	2843.400
639.891	2900.200
640.019	2882.408
640.147	2906.175
640.275	2868.683
640.403	2855.275
640.531	2912.458
640.660	2898.033
640.788	2939.600
640.916	2909.583
641.044	2907.650
641.172	2897.217
641.300	2909.758
641.428	2921.117
641.556	2940.042
641.685	2944.783
641.813	2934.825
641.941	2939.258
642.069	2952.375
642.197	2983.892
642.325	2971.592
642.453	2956.408
642.581	3052.342
642.710	2951.217
642.838	3008.525
642.966	2980.850
643.094	2991.425
643.222	2997.158
643.350	3022.408
643.478	3045.417
643.606	3021.317
643.735	2969.700
643.863	3022.417
643.991	3038.775
644.119	3029.817
644.247	3038.475
644.375	3034.308
644.503	3048.967
644.631	3079.500
644.760	3076.142
644.888	3071.842
645.016	3088.033
645.144	3092.625
645.272	3064.508
645.400	3110.842
645.528	3098.158
645.656	3092.825
645.785	3104.275
645.913	3142.717
646.041	3116.508
646.169	3157.608
646.297	3096.783
646.425	3152.850
646.553	3123.950
646.681	3093.800
646.810	3130.325
646.938	3116.917
647.066	3085.883
647.194	3178.483
647.322	3123.400
647.450	3129.967
647.578	3155.142
647.706	3130.358
647.835	3143.783
647.963	3193.900
648.091	3126.750
648.219	3180.258
648.347	3171.892
648.475	3160.092
648.603	3161.567
648.731	3148.017
648.860	3160.367
648.988	3141.392
649.116	3151.000
649.244	3131.758
649.372	3158.142
649.500	3167.792
649.628	3200.458
649.756	3155.767
649.885	3143.917
650.013	3136.033
650.141	3149.400
650.269	3122.808
650.397	3118.242
650.525	3122.642
650.653	3180.000
650.781	3165.542
650.910	3144.067
651.038	3114.717
651.166	3108.258
651.294	3103.400
651.422	3116.775
651.550	3076.825
651.678	3121.992
651.806	3096.425
651.935	3115.142
652.063	3111.475
652.191	3108.642
652.319	3098.067
652.447	3090.575
652.575	3092.375
652.703	3114.575
652.831	3111.750
652.960	3092.750
653.088	3111.567
653.216	3084.658
653.344	3114.217
653.472	3091.433
653.600	3089.208
653.728	3078.133
653.856	3095.317
653.985	3081.167
654.113	3077.908
654.241	3082.000
654.369	3086.525
654.497	3116.342
654.625	3090.075
654.753	3070.817
654.881	3108.233
655.010	3130.008
655.138	3080.758
655.266	3087.300
655.394	3074.325
655.522	3117.417
655.650	3053.083
655.778	3147.942
655.906	3100.917
656.035	3067.392
656.163	3072.842
656.291	3083.925
656.419	3097.058
656.547	3096.700
656.675	3086.375
