90-130-unpol_at_679.99nm_cut_at_1253.50Y_01.dat
24.01.2024
13:33:21
cut middle at Y: 1253.50
top cursor: 1317 down cursor: 1190 mean of: 127 lines , 2560 datapoints
wavelength(nm)	intensity[arb. units]
515.994	826.512
516.122	780.787
516.250	768.457
516.378	761.969
516.506	752.441
516.635	762.898
516.763	765.732
516.891	768.512
517.019	770.772
517.147	772.181
517.275	774.638
517.403	777.118
517.531	774.205
517.660	773.039
517.788	773.685
517.916	779.402
518.044	778.732
518.172	777.835
518.300	783.063
518.428	777.213
518.556	783.000
518.685	782.197
518.813	782.087
518.941	792.181
519.069	787.646
519.197	785.701
519.325	797.236
519.453	788.685
519.581	805.039
519.710	791.614
519.838	801.118
519.966	797.583
520.094	801.268
520.222	801.528
520.350	809.370
520.478	813.520
520.606	814.559
520.735	812.921
520.863	811.638
520.991	821.535
521.119	819.827
521.247	824.205
521.375	822.811
521.503	830.638
521.631	831.039
521.760	842.945
521.888	835.709
522.016	849.701
522.144	834.386
522.272	837.898
522.400	845.504
522.528	852.827
522.656	853.402
522.785	855.071
522.913	862.835
523.041	854.370
523.169	854.244
523.297	849.441
523.425	859.197
523.553	864.717
523.681	859.283
523.810	867.118
523.938	876.126
524.066	863.236
524.194	871.606
524.322	861.646
524.450	863.693
524.578	861.551
524.706	871.976
524.835	871.504
524.963	877.898
525.091	863.614
525.219	870.252
525.347	872.709
525.475	873.882
525.603	878.992
525.731	868.409
525.860	883.189
525.988	868.850
526.116	869.102
526.244	880.016
526.372	871.882
526.500	878.795
526.628	887.071
526.756	874.394
526.885	878.803
527.013	879.283
527.141	880.898
527.269	877.394
527.397	881.394
527.525	878.000
527.653	876.472
527.781	881.598
527.910	896.362
528.038	891.157
528.166	895.598
528.294	886.984
528.422	894.205
528.550	901.346
528.678	897.614
528.806	902.575
528.935	906.945
529.063	904.126
529.191	900.150
529.319	908.323
529.447	908.402
529.575	910.724
529.703	906.701
529.831	919.606
529.960	914.488
530.088	915.055
530.216	922.378
530.344	919.031
530.472	923.874
530.600	933.496
530.728	924.583
530.856	928.150
530.985	930.543
531.113	919.921
531.241	927.079
531.369	942.669
531.497	929.000
531.625	932.535
531.753	929.409
531.881	932.614
532.010	939.299
532.138	933.299
532.266	926.039
532.394	929.835
532.522	922.441
532.650	929.283
532.778	942.047
532.906	929.890
533.035	936.772
533.163	924.118
533.291	930.307
533.419	920.709
533.547	933.969
533.675	930.567
533.803	926.559
533.931	930.701
534.060	927.008
534.188	928.969
534.316	934.811
534.444	935.173
534.572	926.803
534.700	934.827
534.828	930.378
534.956	934.512
535.085	942.047
535.213	946.748
535.341	948.362
535.469	945.283
535.597	950.134
535.725	952.764
535.853	957.717
535.981	949.937
536.110	967.780
536.238	961.457
536.366	973.835
536.494	958.606
536.622	967.890
536.750	967.764
536.878	978.150
537.006	981.118
537.135	981.795
537.263	985.929
537.391	983.583
537.519	986.386
537.647	994.921
537.775	992.654
537.903	998.551
538.031	988.701
538.160	997.953
538.288	1001.882
538.416	1008.638
538.544	1005.457
538.672	1003.630
538.800	1007.850
538.928	1010.079
539.056	1019.543
539.185	1014.575
539.313	1007.559
539.441	1019.071
539.569	1014.543
539.697	1023.874
539.825	1032.961
539.953	1022.677
540.081	1017.591
540.210	1029.913
540.338	1016.039
540.466	1026.961
540.594	1024.039
540.722	1011.409
540.850	1022.315
540.978	1019.709
541.106	1026.409
541.235	1037.441
541.363	1026.984
541.491	1029.575
541.619	1024.898
541.747	1025.157
541.875	1025.669
542.003	1038.480
542.131	1036.795
542.260	1034.118
542.388	1029.118
542.516	1039.071
542.644	1038.323
542.772	1038.858
542.900	1037.858
543.028	1037.551
543.156	1047.827
543.285	1041.118
543.413	1033.047
543.541	1041.213
543.669	1054.591
543.797	1041.937
543.925	1045.622
544.053	1050.929
544.181	1056.370
544.310	1040.189
544.438	1036.181
544.566	1054.094
544.694	1046.583
544.822	1062.945
544.950	1053.126
545.078	1048.134
545.206	1049.591
545.335	1068.512
545.463	1050.228
545.591	1050.315
545.719	1054.898
545.847	1057.693
545.975	1059.504
546.103	1058.795
546.231	1070.213
546.360	1066.740
546.488	1062.063
546.616	1061.472
546.744	1067.929
546.872	1058.937
547.000	1070.780
547.128	1070.409
547.256	1070.583
547.385	1071.787
547.513	1068.346
547.641	1072.472
547.769	1079.787
547.897	1074.472
548.025	1075.984
548.153	1074.409
548.281	1067.339
548.410	1074.378
548.538	1072.961
548.666	1075.142
548.794	1074.386
548.922	1074.921
549.050	1086.504
549.178	1084.787
549.306	1085.795
549.435	1084.150
549.563	1092.087
549.691	1077.724
549.819	1095.717
549.947	1099.339
550.075	1088.795
550.203	1087.921
550.331	1077.890
550.460	1087.362
550.588	1088.654
550.716	1098.929
550.844	1084.693
550.972	1093.780
551.100	1092.386
551.228	1087.795
551.356	1080.890
551.485	1090.811
551.613	1082.118
551.741	1079.441
551.869	1074.685
551.997	1071.441
552.125	1079.000
552.253	1081.142
552.381	1073.236
552.510	1075.929
552.638	1069.496
552.766	1082.913
552.894	1060.071
553.022	1066.780
553.150	1073.260
553.278	1067.268
553.406	1062.906
553.535	1063.953
553.663	1068.425
553.791	1067.528
553.919	1066.094
554.047	1067.890
554.175	1063.795
554.303	1060.472
554.431	1057.299
554.560	1064.929
554.688	1070.787
554.816	1066.378
554.944	1069.118
555.072	1075.220
555.200	1070.260
555.328	1062.654
555.456	1077.929
555.585	1068.323
555.713	1066.087
555.841	1070.638
555.969	1068.583
556.097	1079.339
556.225	1071.543
556.353	1085.008
556.481	1074.008
556.610	1086.252
556.738	1088.913
556.866	1098.150
556.994	1082.031
557.122	1079.496
557.250	1096.858
557.378	1096.535
557.506	1090.646
557.635	1098.055
557.763	1093.661
557.891	1109.929
558.019	1096.740
558.147	1102.984
558.275	1097.591
558.403	1110.039
558.531	1105.512
558.660	1112.630
558.788	1106.134
558.916	1109.992
559.044	1096.630
559.172	1107.315
559.300	1123.528
559.428	1104.984
559.556	1125.441
559.685	1114.709
559.813	1111.118
559.941	1117.000
560.069	1117.756
560.197	1115.811
560.325	1123.165
560.453	1111.480
560.581	1120.969
560.710	1117.748
560.838	1118.504
560.966	1120.354
561.094	1124.724
561.222	1117.016
561.350	1111.945
561.478	1115.205
561.606	1122.630
561.735	1111.984
561.863	1115.811
561.991	1115.213
562.119	1116.921
562.247	1115.512
562.375	1111.984
562.503	1104.520
562.631	1112.811
562.760	1111.535
562.888	1114.449
563.016	1123.630
563.144	1116.472
563.272	1108.472
563.400	1110.370
563.528	1106.504
563.656	1115.000
563.785	1108.016
563.913	1117.961
564.041	1107.291
564.169	1111.512
564.297	1114.197
564.425	1109.299
564.553	1124.598
564.681	1119.299
564.810	1117.961
564.938	1108.701
565.066	1116.701
565.194	1115.874
565.322	1115.913
565.450	1126.921
565.578	1124.472
565.706	1118.622
565.835	1125.457
565.963	1121.016
566.091	1120.528
566.219	1134.425
566.347	1123.425
566.475	1125.283
566.603	1131.638
566.731	1135.024
566.860	1136.567
566.988	1134.795
567.116	1137.386
567.244	1142.969
567.372	1145.969
567.500	1144.236
567.628	1148.535
567.756	1143.268
567.885	1149.669
568.013	1155.142
568.141	1156.583
568.269	1152.417
568.397	1158.000
568.525	1156.614
568.653	1170.268
568.781	1165.331
568.910	1176.685
569.038	1171.614
569.166	1169.598
569.294	1167.945
569.422	1175.228
569.550	1167.236
569.678	1181.268
569.806	1175.165
569.935	1184.528
570.063	1192.150
570.191	1191.575
570.319	1188.598
570.447	1188.039
570.575	1189.087
570.703	1197.024
570.831	1200.858
570.960	1199.346
571.088	1204.323
571.216	1209.598
571.344	1206.402
571.472	1205.890
571.600	1218.835
571.728	1208.591
571.856	1206.457
571.985	1215.961
572.113	1213.472
572.241	1217.354
572.369	1223.803
572.497	1216.488
572.625	1233.307
572.753	1224.756
572.881	1237.071
573.010	1225.157
573.138	1236.709
573.266	1240.858
573.394	1239.181
573.522	1232.795
573.650	1240.835
573.778	1233.543
573.906	1236.260
574.035	1234.433
574.163	1237.984
574.291	1238.638
574.419	1242.882
574.547	1253.874
574.675	1251.795
574.803	1246.827
574.931	1237.709
575.060	1256.874
575.188	1247.819
575.316	1250.441
575.444	1248.677
575.572	1255.213
575.700	1247.165
575.828	1258.984
575.956	1260.535
576.085	1256.047
576.213	1259.063
576.341	1242.535
576.469	1250.748
576.597	1242.654
576.725	1252.811
576.853	1245.417
576.981	1250.890
577.110	1253.835
577.238	1261.055
577.366	1244.890
577.494	1241.402
577.622	1239.843
577.750	1249.157
577.878	1246.630
578.006	1257.354
578.135	1256.717
578.263	1241.630
578.391	1262.189
578.519	1255.496
578.647	1255.504
578.775	1250.142
578.903	1244.937
579.031	1258.031
579.160	1248.213
579.288	1245.890
579.416	1247.535
579.544	1259.551
579.672	1259.929
579.800	1258.898
579.928	1258.417
580.056	1251.630
580.185	1246.512
580.313	1256.614
580.441	1254.953
580.569	1245.740
580.697	1248.937
580.825	1262.047
580.953	1266.354
581.081	1265.370
581.210	1273.024
581.338	1275.000
581.466	1272.961
581.594	1277.992
581.722	1267.953
581.850	1263.882
581.978	1272.937
582.106	1283.693
582.235	1292.236
582.363	1274.969
582.491	1286.543
582.619	1286.378
582.747	1293.425
582.875	1298.425
583.003	1300.693
583.131	1300.661
583.260	1302.031
583.388	1310.622
583.516	1318.323
583.644	1314.402
583.772	1320.906
583.900	1328.866
584.028	1337.945
584.156	1328.197
584.285	1338.898
584.413	1337.362
584.541	1342.961
584.669	1342.504
584.797	1345.677
584.925	1349.504
585.053	1361.787
585.181	1354.307
585.310	1360.535
585.438	1357.528
585.566	1360.591
585.694	1374.165
585.822	1386.717
585.950	1378.087
586.078	1380.157
586.206	1389.441
586.335	1395.811
586.463	1389.236
586.591	1392.913
586.719	1391.953
586.847	1388.291
586.975	1401.047
587.103	1404.520
587.231	1398.008
587.360	1408.205
587.488	1408.937
587.616	1415.598
587.744	1419.543
587.872	1405.827
588.000	1410.819
588.128	1426.583
588.256	1420.346
588.385	1406.315
588.513	1420.457
588.641	1426.732
588.769	1436.433
588.897	1422.772
589.025	1421.134
589.153	1432.142
589.281	1422.205
589.410	1419.205
589.538	1429.882
589.666	1434.016
589.794	1431.520
589.922	1445.299
590.050	1453.843
590.178	1415.803
590.306	1437.228
590.435	1436.567
590.563	1424.858
590.691	1438.717
590.819	1423.173
590.947	1448.126
591.075	1433.630
591.203	1430.504
591.331	1450.008
591.460	1456.591
591.588	1445.677
591.716	1449.961
591.844	1455.094
591.972	1462.291
592.100	1452.402
592.228	1452.244
592.356	1454.520
592.485	1445.717
592.613	1455.709
592.741	1462.551
592.869	1459.606
592.997	1470.598
593.125	1478.142
593.253	1477.630
593.381	1470.331
593.510	1474.472
593.638	1472.370
593.766	1475.173
593.894	1474.701
594.022	1481.039
594.150	1479.291
594.278	1496.150
594.406	1488.071
594.535	1487.811
594.663	1501.126
594.791	1499.945
594.919	1488.268
595.047	1497.677
595.175	1510.142
595.303	1493.260
595.431	1502.496
595.560	1526.858
595.688	1505.031
595.816	1510.291
595.944	1517.543
596.072	1538.433
596.200	1527.606
596.328	1519.795
596.456	1531.071
596.585	1530.354
596.713	1551.984
596.841	1533.780
596.969	1533.953
597.097	1548.630
597.225	1553.535
597.353	1559.685
597.481	1550.228
597.610	1553.591
597.738	1567.709
597.866	1551.898
597.994	1568.677
598.122	1571.732
598.250	1573.024
598.378	1565.874
598.506	1577.165
598.635	1571.339
598.763	1580.150
598.891	1581.094
599.019	1584.677
599.147	1575.898
599.275	1586.150
599.403	1583.976
599.531	1580.449
599.660	1596.567
599.788	1600.331
599.916	1588.165
600.044	1598.874
600.172	1606.976
600.300	1595.244
600.428	1599.654
600.556	1610.346
600.685	1617.409
600.813	1608.669
600.941	1627.362
601.069	1627.772
601.197	1636.488
601.325	1629.244
601.453	1629.882
601.581	1630.795
601.710	1641.346
601.838	1652.134
601.966	1642.236
602.094	1641.346
602.222	1642.063
602.350	1649.575
602.478	1655.543
602.606	1657.433
602.735	1655.961
602.863	1681.071
602.991	1687.370
603.119	1678.118
603.247	1680.661
603.375	1680.685
603.503	1686.307
603.631	1700.276
603.760	1701.063
603.888	1697.331
604.016	1707.882
604.144	1698.929
604.272	1714.551
604.400	1709.394
604.528	1707.063
604.656	1718.890
604.785	1730.110
604.913	1735.157
605.041	1736.449
605.169	1745.756
605.297	1736.417
605.425	1739.630
605.553	1757.583
605.681	1748.543
605.810	1758.504
605.938	1756.370
606.066	1757.354
606.194	1778.024
606.322	1764.110
606.450	1782.315
606.578	1762.197
606.706	1768.134
606.835	1776.858
606.963	1786.339
607.091	1793.866
607.219	1771.874
607.347	1767.528
607.475	1796.898
607.603	1788.787
607.731	1788.583
607.860	1780.197
607.988	1788.260
608.116	1785.283
608.244	1790.866
608.372	1788.016
608.500	1793.457
608.628	1790.362
608.756	1794.551
608.885	1804.685
609.013	1790.677
609.141	1792.559
609.269	1794.583
609.397	1792.638
609.525	1793.441
609.653	1800.016
609.781	1794.165
609.910	1793.740
610.038	1801.724
610.166	1801.260
610.294	1800.583
610.422	1817.661
610.550	1803.276
610.678	1802.677
610.806	1806.205
610.935	1812.339
611.063	1803.866
611.191	1803.055
611.319	1815.787
611.447	1805.291
611.575	1793.661
611.703	1777.819
611.831	1801.717
611.960	1796.717
612.088	1799.528
612.216	1805.465
612.344	1811.362
612.472	1796.567
612.600	1813.732
612.728	1795.008
612.856	1817.402
612.985	1796.677
613.113	1813.772
613.241	1806.685
613.369	1810.394
613.497	1810.024
613.625	1807.748
613.753	1804.370
613.881	1818.583
614.010	1805.811
614.138	1811.614
614.266	1799.835
614.394	1807.504
614.522	1813.780
614.650	1828.409
614.778	1818.811
614.906	1837.984
615.035	1828.299
615.163	1814.370
615.291	1833.685
615.419	1823.055
615.547	1818.890
615.675	1844.260
615.803	1834.047
615.931	1850.134
616.060	1842.386
616.188	1839.953
616.316	1835.252
616.444	1848.260
616.572	1856.559
616.700	1854.866
616.828	1863.520
616.956	1864.213
617.085	1876.811
617.213	1866.898
617.341	1861.315
617.469	1883.362
617.597	1879.291
617.725	1873.606
617.853	1865.071
617.981	1870.669
618.110	1893.559
618.238	1884.929
618.366	1902.244
618.494	1897.567
618.622	1898.787
618.750	1895.016
618.878	1893.961
619.006	1905.669
619.135	1925.016
619.263	1908.307
619.391	1906.480
619.519	1906.819
619.647	1934.976
619.775	1930.693
619.903	1938.402
620.031	1949.244
620.160	1938.913
620.288	1934.685
620.416	1961.559
620.544	1947.276
620.672	1954.102
620.800	1963.803
620.928	1955.142
621.056	1978.165
621.185	1975.000
621.313	1965.803
621.441	1987.764
621.569	2010.134
621.697	1990.724
621.825	2002.291
621.953	2000.205
622.081	2003.354
622.210	1988.173
622.338	2003.252
622.466	1998.606
622.594	2012.740
622.722	2017.008
622.850	2034.102
622.978	2024.756
623.106	2036.921
623.235	2031.094
623.363	2046.000
623.491	2042.331
623.619	2032.409
623.747	2038.598
623.875	2045.661
624.003	2031.181
624.131	2045.409
624.260	2041.835
624.388	2060.858
624.516	2064.583
624.644	2046.937
624.772	2057.858
624.900	2057.205
625.028	2046.118
625.156	2073.197
625.285	2068.205
625.413	2067.386
625.541	2067.811
625.669	2072.055
625.797	2069.024
625.925	2074.465
626.053	2068.346
626.181	2079.173
626.310	2078.677
626.438	2063.543
626.566	2054.417
626.694	2067.575
626.822	2068.945
626.950	2086.181
627.078	2080.756
627.206	2080.205
627.335	2095.559
627.463	2080.756
627.591	2094.551
627.719	2092.047
627.847	2093.063
627.975	2082.134
628.103	2082.646
628.231	2096.165
628.360	2088.173
628.488	2089.024
628.616	2092.362
628.744	2084.638
628.872	2087.764
629.000	2091.693
629.128	2085.953
629.256	2095.669
629.385	2099.094
629.513	2076.307
629.641	2099.142
629.769	2111.094
629.897	2098.142
630.025	2096.504
630.153	2120.646
630.281	2105.850
630.410	2099.496
630.538	2115.213
630.666	2111.299
630.794	2109.898
630.922	2099.551
631.050	2083.291
631.178	2098.031
631.306	2115.480
631.435	2110.268
631.563	2121.268
631.691	2124.780
631.819	2133.591
631.947	2129.512
632.075	2115.945
632.203	2132.299
632.331	2130.906
632.460	2106.591
632.588	2122.031
632.716	2142.079
632.844	2120.220
632.972	2109.000
633.100	2128.740
633.228	2139.969
633.356	2115.961
633.485	2139.315
633.613	2134.181
633.741	2130.024
633.869	2139.142
633.997	2124.150
634.125	2127.472
634.253	2122.134
634.381	2122.260
634.510	2135.827
634.638	2119.276
634.766	2135.425
634.894	2131.520
635.022	2110.008
635.150	2114.307
635.278	2145.024
635.406	2109.252
635.535	2121.315
635.663	2129.173
635.791	2106.811
635.919	2137.811
636.047	2123.094
636.175	2109.354
636.303	2136.339
636.431	2128.213
636.560	2148.283
636.688	2134.000
636.816	2117.465
636.944	2122.197
637.072	2130.094
637.200	2128.787
637.328	2121.409
637.456	2116.118
637.585	2128.362
637.713	2145.913
637.841	2125.764
637.969	2120.913
638.097	2121.756
638.225	2129.882
638.353	2138.732
638.481	2135.087
638.610	2146.047
638.738	2146.323
638.866	2114.425
638.994	2131.866
639.122	2127.472
639.250	2139.244
639.378	2142.472
639.506	2130.969
639.635	2143.055
639.763	2127.346
639.891	2145.386
640.019	2150.063
640.147	2152.890
640.275	2150.969
640.403	2133.677
640.531	2141.646
640.660	2148.047
640.788	2172.921
640.916	2158.598
641.044	2164.000
641.172	2157.465
641.300	2161.228
641.428	2166.843
641.556	2169.921
641.685	2162.512
641.813	2154.472
641.941	2177.701
642.069	2174.134
642.197	2177.976
642.325	2172.016
642.453	2182.047
642.581	2195.740
642.710	2158.890
642.838	2183.535
642.966	2185.354
643.094	2173.969
643.222	2182.496
643.350	2180.992
643.478	2192.630
643.606	2195.843
643.735	2185.205
643.863	2184.370
643.991	2210.858
644.119	2204.976
644.247	2194.150
644.375	2198.276
644.503	2208.906
644.631	2216.220
644.760	2217.803
644.888	2208.378
645.016	2211.024
645.144	2210.441
645.272	2198.913
645.400	2212.961
645.528	2215.236
645.656	2212.961
645.785	2220.055
645.913	2231.756
646.041	2222.646
646.169	2204.512
646.297	2203.465
646.425	2211.583
646.553	2198.220
646.681	2203.252
646.810	2211.898
646.938	2207.858
647.066	2213.394
647.194	2223.701
647.322	2209.016
647.450	2205.189
647.578	2223.394
647.706	2209.142
647.835	2212.898
647.963	2210.134
648.091	2213.110
648.219	2207.283
648.347	2211.189
648.475	2207.110
648.603	2209.181
648.731	2203.559
648.860	2204.913
648.988	2195.394
649.116	2193.748
649.244	2172.220
649.372	2189.173
649.500	2175.535
649.628	2194.031
649.756	2177.102
649.885	2161.189
650.013	2170.102
650.141	2154.126
650.269	2146.504
650.397	2167.150
650.525	2145.835
650.653	2165.260
650.781	2154.992
650.910	2139.575
651.038	2123.276
651.166	2135.677
651.294	2137.339
651.422	2125.433
651.550	2105.890
651.678	2127.677
651.806	2111.921
651.935	2110.394
652.063	2099.118
652.191	2106.071
652.319	2093.244
652.447	2082.772
652.575	2079.055
652.703	2085.709
652.831	2095.945
652.960	2074.488
653.088	2076.890
653.216	2066.583
653.344	2067.976
653.472	2066.709
653.600	2066.102
653.728	2064.701
653.856	2042.362
653.985	2065.362
654.113	2057.606
654.241	2058.260
654.369	2050.417
654.497	2073.583
654.625	2051.850
654.753	2044.906
654.881	2059.488
655.010	2061.835
655.138	2039.008
655.266	2041.276
655.394	2026.283
655.522	2041.535
655.650	2019.638
655.778	2030.543
655.906	2032.465
656.035	2018.220
656.163	2015.984
656.291	2020.173
656.419	2019.472
656.547	2012.575
656.675	2000.378
656.803	2008.488
656.931	2002.110
657.060	2000.732
657.188	2011.567
657.316	2003.661
657.444	2004.094
657.572	2002.260
657.700	2001.937
657.828	2010.772
657.956	2008.787
