90-130-90_at_679.99nm_cut_at_1253.50Y_01.dat
24.01.2024
13:32:52
cut middle at Y: 1253.50
top cursor: 1317 down cursor: 1190 mean of: 127 lines , 2560 datapoints
wavelength(nm)	intensity[arb. units]
515.994	350.669
516.122	331.339
516.250	329.701
516.378	325.260
516.506	324.299
516.635	325.457
516.763	326.630
516.891	328.441
517.019	336.449
517.147	328.520
517.275	332.449
517.403	327.858
517.531	327.417
517.660	330.465
517.788	327.441
517.916	332.654
518.044	328.150
518.172	331.110
518.300	328.614
518.428	327.921
518.556	333.260
518.685	334.661
518.813	333.669
518.941	334.811
519.069	334.535
519.197	334.402
519.325	333.803
519.453	336.976
519.581	340.228
519.710	334.992
519.838	334.906
519.966	337.039
520.094	337.890
520.222	336.583
520.350	339.921
520.478	343.717
520.606	340.276
520.735	346.307
520.863	342.724
520.991	344.457
521.119	344.874
521.247	347.488
521.375	345.575
521.503	348.520
521.631	347.827
521.760	350.228
521.888	346.961
522.016	349.386
522.144	352.409
522.272	356.252
522.400	355.677
522.528	355.669
522.656	356.346
522.785	359.417
522.913	355.803
523.041	355.228
523.169	352.472
523.297	351.961
523.425	357.394
523.553	358.654
523.681	357.598
523.810	358.016
523.938	360.244
524.066	357.268
524.194	359.268
524.322	357.276
524.450	354.693
524.578	360.252
524.706	360.134
524.835	359.268
524.963	362.583
525.091	360.732
525.219	355.157
525.347	355.756
525.475	358.276
525.603	358.472
525.731	363.118
525.860	360.024
525.988	361.063
526.116	359.126
526.244	362.638
526.372	359.480
526.500	362.315
526.628	363.299
526.756	360.197
526.885	362.913
527.013	361.244
527.141	366.559
527.269	361.189
527.397	362.291
527.525	362.787
527.653	365.087
527.781	362.984
527.910	366.165
528.038	370.110
528.166	366.661
528.294	367.449
528.422	365.142
528.550	365.220
528.678	369.724
528.806	374.000
528.935	375.268
529.063	373.835
529.191	370.772
529.319	372.906
529.447	373.236
529.575	371.748
529.703	376.488
529.831	375.858
529.960	374.811
530.088	375.748
530.216	376.819
530.344	375.283
530.472	380.661
530.600	377.315
530.728	377.504
530.856	380.567
530.985	378.622
531.113	380.567
531.241	381.835
531.369	381.291
531.497	379.244
531.625	383.748
531.753	385.677
531.881	381.953
532.010	381.606
532.138	381.378
532.266	381.591
532.394	381.756
532.522	384.276
532.650	382.315
532.778	387.520
532.906	384.598
533.035	385.315
533.163	381.551
533.291	383.094
533.419	380.748
533.547	378.299
533.675	381.835
533.803	378.630
533.931	379.646
534.060	380.921
534.188	387.535
534.316	383.189
534.444	380.795
534.572	380.394
534.700	385.346
534.828	383.299
534.956	383.913
535.085	390.039
535.213	387.835
535.341	380.165
535.469	385.677
535.597	388.094
535.725	387.606
535.853	386.669
535.981	395.890
536.110	394.307
536.238	391.717
536.366	397.701
536.494	394.598
536.622	396.795
536.750	394.457
536.878	399.425
537.006	400.417
537.135	400.992
537.263	400.551
537.391	398.480
537.519	404.228
537.647	400.961
537.775	401.669
537.903	402.504
538.031	404.394
538.160	405.992
538.288	406.890
538.416	405.740
538.544	403.732
538.672	406.606
538.800	408.331
538.928	411.386
539.056	407.882
539.185	409.551
539.313	410.669
539.441	411.283
539.569	409.354
539.697	408.827
539.825	412.378
539.953	413.299
540.081	410.063
540.210	410.835
540.338	413.472
540.466	412.835
540.594	412.583
540.722	408.882
540.850	410.819
540.978	417.882
541.106	414.165
541.235	420.087
541.363	412.291
541.491	417.764
541.619	409.614
541.747	416.362
541.875	412.433
542.003	411.339
542.131	412.110
542.260	413.402
542.388	411.913
542.516	414.890
542.644	422.362
542.772	415.094
542.900	415.276
543.028	412.339
543.156	417.094
543.285	415.992
543.413	416.528
543.541	417.709
543.669	417.661
543.797	416.945
543.925	418.299
544.053	419.654
544.181	420.465
544.310	415.685
544.438	413.717
544.566	422.323
544.694	420.543
544.822	420.575
544.950	422.134
545.078	422.677
545.206	424.291
545.335	425.535
545.463	420.630
545.591	420.417
545.719	420.898
545.847	424.488
545.975	425.386
546.103	424.504
546.231	425.016
546.360	425.622
546.488	424.732
546.616	427.449
546.744	428.173
546.872	429.197
547.000	428.614
547.128	431.260
547.256	428.764
547.385	431.252
547.513	425.701
547.641	438.118
547.769	433.354
547.897	428.858
548.025	435.740
548.153	430.921
548.281	431.709
548.410	438.976
548.538	430.630
548.666	433.465
548.794	433.835
548.922	435.740
549.050	440.134
549.178	438.142
549.306	440.197
549.435	444.386
549.563	435.795
549.691	428.331
549.819	441.598
549.947	439.488
550.075	438.047
550.203	436.827
550.331	432.567
550.460	444.079
550.588	438.063
550.716	443.126
550.844	435.677
550.972	436.339
551.100	439.795
551.228	434.882
551.356	437.669
551.485	439.937
551.613	437.504
551.741	434.024
551.869	432.189
551.997	434.685
552.125	432.197
552.253	434.520
552.381	432.386
552.510	433.819
552.638	427.441
552.766	436.024
552.894	429.780
553.022	431.575
553.150	430.496
553.278	429.063
553.406	426.732
553.535	428.898
553.663	429.165
553.791	432.189
553.919	426.323
554.047	432.961
554.175	432.283
554.303	428.850
554.431	425.346
554.560	432.866
554.688	438.354
554.816	431.260
554.944	428.929
555.072	435.583
555.200	433.685
555.328	429.528
555.456	434.764
555.585	436.551
555.713	436.465
555.841	439.528
555.969	430.701
556.097	439.220
556.225	438.402
556.353	439.929
556.481	438.402
556.610	439.071
556.738	440.157
556.866	442.913
556.994	443.669
557.122	440.976
557.250	447.362
557.378	442.591
557.506	439.969
557.635	442.961
557.763	442.740
557.891	450.252
558.019	443.646
558.147	450.102
558.275	444.252
558.403	450.362
558.531	453.063
558.660	450.346
558.788	447.181
558.916	448.205
559.044	448.181
559.172	452.661
559.300	455.654
559.428	448.150
559.556	455.402
559.685	458.299
559.813	456.472
559.941	456.764
560.069	458.409
560.197	455.827
560.325	458.504
560.453	452.543
560.581	454.827
560.710	451.685
560.838	458.953
560.966	456.425
561.094	461.646
561.222	457.063
561.350	455.953
561.478	455.189
561.606	459.504
561.735	454.197
561.863	456.732
561.991	454.504
562.119	454.528
562.247	454.394
562.375	454.252
562.503	453.126
562.631	457.173
562.760	453.425
562.888	457.039
563.016	453.213
563.144	452.583
563.272	454.921
563.400	452.307
563.528	452.039
563.656	456.197
563.785	454.677
563.913	453.969
564.041	454.701
564.169	455.449
564.297	452.906
564.425	454.591
564.553	459.276
564.681	456.717
564.810	454.764
564.938	455.488
565.066	451.189
565.194	457.874
565.322	455.102
565.450	456.591
565.578	463.717
565.706	460.370
565.835	459.795
565.963	459.646
566.091	456.142
566.219	458.803
566.347	458.921
566.475	461.346
566.603	457.386
566.731	462.693
566.860	460.984
566.988	461.339
567.116	470.134
567.244	462.087
567.372	467.811
567.500	466.732
567.628	469.787
567.756	464.992
567.885	473.984
568.013	470.709
568.141	469.441
568.269	473.047
568.397	471.047
568.525	472.236
568.653	478.465
568.781	473.843
568.910	480.094
569.038	482.189
569.166	472.630
569.294	475.331
569.422	480.165
569.550	477.780
569.678	479.118
569.806	484.425
569.935	486.787
570.063	485.677
570.191	491.772
570.319	489.937
570.447	481.866
570.575	487.913
570.703	488.378
570.831	495.157
570.960	494.039
571.088	490.646
571.216	490.969
571.344	489.953
571.472	494.811
571.600	494.480
571.728	493.976
571.856	494.843
571.985	500.740
572.113	503.961
572.241	499.079
572.369	499.646
572.497	491.244
572.625	505.079
572.753	501.567
572.881	504.811
573.010	500.661
573.138	506.205
573.266	509.567
573.394	503.063
573.522	505.024
573.650	501.929
573.778	506.173
573.906	508.283
574.035	508.213
574.163	507.110
574.291	508.906
574.419	508.929
574.547	513.283
574.675	510.173
574.803	509.307
574.931	504.984
575.060	513.811
575.188	506.551
575.316	505.654
575.444	514.858
575.572	511.213
575.700	510.157
575.828	516.079
575.956	513.898
576.085	504.835
576.213	509.409
576.341	509.465
576.469	513.457
576.597	512.929
576.725	510.031
576.853	508.307
576.981	512.291
577.110	504.976
577.238	512.071
577.366	506.480
577.494	508.150
577.622	510.031
577.750	505.850
577.878	513.551
578.006	513.937
578.135	508.732
578.263	508.984
578.391	517.071
578.519	503.724
578.647	510.299
578.775	508.039
578.903	506.441
579.031	508.126
579.160	513.724
579.288	512.228
579.416	509.795
579.544	512.614
579.672	513.709
579.800	512.732
579.928	513.969
580.056	510.591
580.185	511.299
580.313	515.378
580.441	512.913
580.569	508.409
580.697	509.535
580.825	512.591
580.953	516.874
581.081	514.811
581.210	519.378
581.338	518.150
581.466	518.551
581.594	519.402
581.722	513.598
581.850	518.740
581.978	514.614
582.106	515.748
582.235	525.772
582.363	512.622
582.491	519.921
582.619	520.173
582.747	527.228
582.875	528.756
583.003	531.685
583.131	530.268
583.260	528.748
583.388	528.976
583.516	532.417
583.644	532.394
583.772	535.717
583.900	536.898
584.028	536.079
584.156	537.362
584.285	540.047
584.413	542.425
584.541	546.551
584.669	542.110
584.797	545.118
584.925	535.126
585.053	544.362
585.181	549.016
585.310	550.701
585.438	551.709
585.566	544.094
585.694	555.567
585.822	557.984
585.950	556.953
586.078	562.866
586.206	558.638
586.335	560.268
586.463	560.835
586.591	564.937
586.719	561.764
586.847	563.362
586.975	566.276
587.103	565.339
587.231	557.268
587.360	566.622
587.488	571.646
587.616	571.220
587.744	568.260
587.872	565.047
588.000	564.654
588.128	576.732
588.256	571.094
588.385	569.976
588.513	571.614
588.641	573.724
588.769	579.961
588.897	577.457
589.025	576.252
589.153	579.339
589.281	574.528
589.410	578.346
589.538	574.976
589.666	576.370
589.794	573.252
589.922	582.354
590.050	582.583
590.178	572.882
590.306	584.071
590.435	581.339
590.563	580.984
590.691	585.866
590.819	580.071
590.947	590.126
591.075	581.669
591.203	584.898
591.331	586.622
591.460	584.929
591.588	580.071
591.716	585.362
591.844	587.189
591.972	586.134
592.100	583.882
592.228	586.102
592.356	589.630
592.485	587.701
592.613	589.496
592.741	592.953
592.869	588.157
592.997	590.819
593.125	595.197
593.253	595.661
593.381	595.780
593.510	602.535
593.638	599.992
593.766	595.394
593.894	596.976
594.022	599.425
594.150	590.921
594.278	601.701
594.406	598.150
594.535	595.150
594.663	608.740
594.791	602.772
594.919	604.701
595.047	606.551
595.175	602.811
595.303	614.480
595.431	612.937
595.560	614.150
595.688	611.307
595.816	611.087
595.944	615.339
596.072	618.969
596.200	615.126
596.328	614.850
596.456	622.024
596.585	623.945
596.713	628.063
596.841	626.165
596.969	621.772
597.097	619.906
597.225	629.945
597.353	628.496
597.481	628.929
597.610	632.969
597.738	630.583
597.866	622.386
597.994	637.181
598.122	639.992
598.250	627.811
598.378	636.016
598.506	639.795
598.635	635.992
598.763	639.874
598.891	637.291
599.019	644.425
599.147	633.567
599.275	644.118
599.403	643.512
599.531	643.669
599.660	642.228
599.788	646.945
599.916	649.409
600.044	642.811
600.172	648.598
600.300	650.843
600.428	650.709
600.556	656.323
600.685	651.433
600.813	653.717
600.941	656.961
601.069	656.047
601.197	664.047
601.325	665.047
601.453	664.244
601.581	666.575
601.710	666.661
601.838	668.764
601.966	662.843
602.094	670.953
602.222	672.724
602.350	672.047
602.478	668.362
602.606	679.094
602.735	678.276
602.863	683.323
602.991	684.598
603.119	683.063
603.247	677.803
603.375	688.063
603.503	684.441
603.631	689.630
603.760	688.094
603.888	689.717
604.016	692.724
604.144	692.535
604.272	696.055
604.400	701.362
604.528	688.835
604.656	707.622
604.785	704.835
604.913	700.457
605.041	705.142
605.169	713.976
605.297	707.449
605.425	713.173
605.553	716.906
605.681	708.764
605.810	714.252
605.938	713.850
606.066	711.717
606.194	718.228
606.322	711.661
606.450	726.189
606.578	727.079
606.706	724.520
606.835	724.165
606.963	725.913
607.091	731.370
607.219	725.913
607.347	728.441
607.475	732.079
607.603	730.055
607.731	723.189
607.860	726.323
607.988	722.787
608.116	729.858
608.244	732.268
608.372	728.402
608.500	730.150
608.628	734.598
608.756	730.913
608.885	733.024
609.013	728.047
609.141	737.252
609.269	731.827
609.397	733.173
609.525	732.598
609.653	728.339
609.781	738.071
609.910	735.803
610.038	729.346
610.166	735.087
610.294	735.394
610.422	740.543
610.550	731.409
610.678	734.480
610.806	738.102
610.935	737.976
611.063	733.835
611.191	732.724
611.319	735.087
611.447	732.890
611.575	740.252
611.703	734.504
611.831	737.669
611.960	736.268
612.088	740.087
612.216	738.157
612.344	731.669
612.472	737.189
612.600	738.165
612.728	734.331
612.856	744.535
612.985	736.378
613.113	741.819
613.241	743.787
613.369	742.898
613.497	739.780
613.625	737.362
613.753	734.472
613.881	738.346
614.010	742.984
614.138	739.016
614.266	741.732
614.394	737.024
614.522	739.945
614.650	744.425
614.778	743.512
614.906	756.929
615.035	745.701
615.163	745.386
615.291	749.528
615.419	750.457
615.547	747.598
615.675	748.189
615.803	757.803
615.931	759.339
616.060	755.480
616.188	748.614
616.316	757.205
616.444	759.520
616.572	757.346
616.700	756.094
616.828	767.866
616.956	762.496
617.085	773.780
617.213	767.008
617.341	755.827
617.469	761.512
617.597	767.898
617.725	770.299
617.853	764.811
617.981	764.110
618.110	773.984
618.238	768.315
618.366	781.016
618.494	774.984
618.622	776.354
618.750	776.732
618.878	775.591
619.006	784.528
619.135	788.811
619.263	788.370
619.391	786.567
619.519	779.953
619.647	791.220
619.775	793.496
619.903	799.622
620.031	799.827
620.160	799.992
620.288	795.433
620.416	801.898
620.544	807.197
620.672	808.591
620.800	805.732
620.928	806.000
621.056	813.717
621.185	809.819
621.313	812.630
621.441	820.441
621.569	822.346
621.697	821.134
621.825	829.118
621.953	827.567
622.081	830.772
622.210	823.748
622.338	823.732
622.466	822.496
622.594	839.772
622.722	833.638
622.850	837.945
622.978	833.126
623.106	831.220
623.235	847.441
623.363	841.087
623.491	839.764
623.619	840.205
623.747	848.000
623.875	841.220
624.003	840.102
624.131	846.984
624.260	835.661
624.388	852.717
624.516	855.543
624.644	846.504
624.772	852.819
624.900	853.417
625.028	843.669
625.156	854.346
625.285	843.622
625.413	855.756
625.541	851.472
625.669	858.669
625.797	854.480
625.925	856.354
626.053	857.606
626.181	866.646
626.310	852.346
626.438	860.472
626.566	852.528
626.694	860.055
626.822	865.543
626.950	866.126
627.078	867.803
627.206	863.827
627.335	865.472
627.463	878.425
627.591	866.291
627.719	865.567
627.847	865.165
627.975	865.787
628.103	860.748
628.231	872.173
628.360	869.661
628.488	874.528
628.616	867.457
628.744	872.307
628.872	860.213
629.000	869.323
629.128	873.677
629.256	880.701
629.385	871.606
629.513	872.425
629.641	875.480
629.769	870.630
629.897	875.110
630.025	874.567
630.153	884.457
630.281	877.055
630.410	870.394
630.538	881.913
630.666	880.047
630.794	880.693
630.922	880.528
631.050	874.740
631.178	878.583
631.306	878.118
631.435	877.142
631.563	885.252
631.691	878.323
631.819	883.457
631.947	881.843
632.075	878.528
632.203	882.953
632.331	886.803
632.460	882.055
632.588	879.591
632.716	889.622
632.844	881.063
632.972	885.205
633.100	888.354
633.228	890.614
633.356	885.008
633.485	880.929
633.613	893.346
633.741	881.898
633.869	883.677
633.997	887.291
634.125	888.780
634.253	873.772
634.381	880.071
634.510	892.748
634.638	882.189
634.766	888.756
634.894	884.717
635.022	878.795
635.150	892.126
635.278	897.063
635.406	885.283
635.535	888.701
635.663	898.110
635.791	877.701
635.919	898.858
636.047	887.213
636.175	882.339
636.303	889.008
636.431	897.488
636.560	891.795
636.688	887.339
636.816	886.929
636.944	884.583
637.072	895.858
637.200	884.890
637.328	883.315
637.456	898.024
637.585	896.622
637.713	889.394
637.841	883.654
637.969	885.803
638.097	887.276
638.225	896.047
638.353	899.835
638.481	892.850
638.610	903.858
638.738	899.929
638.866	889.417
638.994	892.315
639.122	891.984
639.250	898.748
639.378	894.622
639.506	892.276
639.635	902.787
639.763	895.551
639.891	903.142
640.019	903.244
640.147	899.063
640.275	899.031
640.403	902.496
640.531	902.480
640.660	901.827
640.788	908.370
640.916	904.772
641.044	914.787
641.172	896.913
641.300	909.567
641.428	907.512
641.556	914.441
641.685	913.165
641.813	907.409
641.941	909.087
642.069	910.496
642.197	918.386
642.325	910.709
642.453	920.969
642.581	920.441
642.710	918.039
642.838	922.394
642.966	914.661
643.094	914.961
643.222	918.528
643.350	913.567
643.478	925.654
643.606	921.969
643.735	920.252
643.863	920.913
643.991	929.457
644.119	928.433
644.247	923.843
644.375	923.787
644.503	931.669
644.631	928.087
644.760	926.496
644.888	931.921
645.016	938.157
645.144	934.031
645.272	931.315
645.400	932.268
645.528	933.992
645.656	926.465
645.785	931.827
645.913	931.102
646.041	943.795
646.169	932.134
646.297	926.598
646.425	930.063
646.553	926.606
646.681	934.528
646.810	932.874
646.938	931.331
647.066	927.425
647.194	938.024
647.322	938.173
647.450	929.370
647.578	938.512
647.706	934.638
647.835	930.866
647.963	929.780
648.091	927.724
648.219	931.394
648.347	932.039
648.475	928.220
648.603	925.567
648.731	928.244
648.860	921.299
648.988	926.937
649.116	930.614
649.244	915.669
649.372	919.079
649.500	919.417
649.628	916.472
649.756	920.504
649.885	913.764
650.013	914.748
650.141	914.244
650.269	901.528
650.397	911.890
650.525	916.622
650.653	906.654
650.781	903.937
650.910	910.079
651.038	890.685
651.166	905.063
651.294	902.346
651.422	898.378
651.550	896.717
651.678	887.102
651.806	886.496
651.935	894.260
652.063	885.102
652.191	880.709
652.319	887.843
652.447	885.921
652.575	883.724
652.703	873.669
652.831	876.661
652.960	878.709
653.088	872.732
653.216	867.559
653.344	873.299
653.472	872.150
653.600	873.748
653.728	868.732
653.856	866.339
653.985	866.433
654.113	870.874
654.241	874.583
654.369	864.661
654.497	872.953
654.625	861.835
654.753	867.827
654.881	863.000
655.010	867.654
655.138	863.268
655.266	865.858
655.394	855.559
655.522	860.945
655.650	852.622
655.778	858.693
655.906	854.772
656.035	856.575
656.163	859.795
656.291	861.071
656.419	844.110
656.547	855.740
656.675	848.756
656.803	848.323
656.931	849.858
657.060	844.142
657.188	850.055
657.316	854.142
657.444	852.638
657.572	850.031
657.700	847.047
657.828	847.480
657.956	850.654
658.085	857.039
658.213	853.937
658.341	852.780
658.469	845.606
658.597	852.890
658.725	853.992
658.853	839.213
658.981	841.016
659.110	848.181
659.238	844.945
659.366	847.134
659.494	837.528
659.622	846.622
659.750	841.173
659.878	841.260
660.006	848.756
660.135	843.094
660.263	838.984
660.391	840.858
660.519	843.858
660.647	833.409
660.775	837.559
660.903	835.031
661.031	837.913
661.160	840.709
661.288	838.220
661.416	837.575
661.544	836.063
661.672	830.882
661.800	834.898
661.928	834.244
662.056	830.110
662.185	825.260
662.313	832.827
662.441	836.709
662.569	830.291
662.697	829.969
662.825	829.386
662.953	830.559
663.081	826.465
663.210	825.717
663.338	837.449
663.466	820.874
663.594	812.953
663.722	818.181
663.850	822.945
663.978	815.866
664.106	827.094
664.235	823.992
664.363	826.677
664.491	814.630
664.619	821.496
664.747	823.559
664.875	815.969
665.003	812.748
