90-140-0_at_679.99nm_cut_at_1253.50Y_01.dat
24.01.2024
13:33:58
cut middle at Y: 1253.50
top cursor: 1317 down cursor: 1190 mean of: 127 lines , 2560 datapoints
wavelength(nm)	intensity[arb. units]
515.994	306.866
516.122	293.205
516.250	288.031
516.378	288.268
516.506	287.276
516.635	293.591
516.763	293.866
516.891	294.291
517.019	290.496
517.147	290.685
517.275	292.055
517.403	292.031
517.531	295.417
517.660	294.417
517.788	292.551
517.916	297.228
518.044	291.260
518.172	296.575
518.300	296.118
518.428	298.173
518.556	297.976
518.685	294.315
518.813	295.157
518.941	300.157
519.069	301.535
519.197	297.835
519.325	301.449
519.453	299.087
519.581	303.386
519.710	301.591
519.838	304.811
519.966	299.646
520.094	299.370
520.222	303.724
520.350	303.134
520.478	308.118
520.606	303.598
520.735	304.134
520.863	306.039
520.991	309.024
521.119	304.449
521.247	309.701
521.375	306.480
521.503	310.496
521.631	311.276
521.760	313.000
521.888	312.835
522.016	316.173
522.144	312.811
522.272	317.244
522.400	314.992
522.528	318.079
522.656	316.614
522.785	317.362
522.913	318.583
523.041	313.157
523.169	319.394
523.297	319.433
523.425	317.008
523.553	321.000
523.681	319.157
523.810	319.756
523.938	321.819
524.066	320.315
524.194	322.354
524.322	320.268
524.450	318.252
524.578	324.189
524.706	322.937
524.835	320.142
524.963	320.142
525.091	321.205
525.219	324.685
525.347	321.126
525.475	324.764
525.603	321.165
525.731	326.157
525.860	321.654
525.988	322.591
526.116	321.181
526.244	325.882
526.372	321.559
526.500	322.417
526.628	325.276
526.756	323.016
526.885	322.795
527.013	323.772
527.141	324.488
527.269	324.843
527.397	326.772
527.525	324.961
527.653	322.189
527.781	321.126
527.910	327.094
528.038	322.362
528.166	330.638
528.294	328.898
528.422	330.417
528.550	328.276
528.678	330.606
528.806	328.961
528.935	331.843
529.063	330.220
529.191	334.291
529.319	331.008
529.447	335.252
529.575	335.614
529.703	332.110
529.831	330.732
529.960	334.661
530.088	333.937
530.216	335.740
530.344	329.260
530.472	333.772
530.600	339.614
530.728	335.835
530.856	331.858
530.985	337.717
531.113	335.402
531.241	337.504
531.369	339.157
531.497	336.803
531.625	335.843
531.753	337.669
531.881	340.276
532.010	341.709
532.138	335.339
532.266	330.953
532.394	336.394
532.522	334.465
532.650	328.362
532.778	339.843
532.906	337.866
533.035	335.803
533.163	332.228
533.291	333.984
533.419	331.378
533.547	334.433
533.675	335.866
533.803	331.142
533.931	332.827
534.060	336.654
534.188	334.835
534.316	337.126
534.444	327.087
534.572	333.701
534.700	333.362
534.828	332.543
534.956	336.551
535.085	336.890
535.213	338.402
535.341	336.780
535.469	336.787
535.597	340.898
535.725	340.102
535.853	338.685
535.981	340.661
536.110	345.433
536.238	343.677
536.366	343.457
536.494	339.913
536.622	346.598
536.750	343.134
536.878	351.008
537.006	345.866
537.135	347.732
537.263	349.661
537.391	346.378
537.519	349.906
537.647	350.654
537.775	348.882
537.903	346.866
538.031	350.228
538.160	349.315
538.288	352.874
538.416	353.071
538.544	349.071
538.672	352.583
538.800	351.772
538.928	354.370
539.056	352.488
539.185	354.220
539.313	353.260
539.441	358.362
539.569	357.709
539.697	356.992
539.825	355.598
539.953	358.575
540.081	351.496
540.210	355.315
540.338	359.717
540.466	355.646
540.594	358.047
540.722	356.709
540.850	356.181
540.978	356.929
541.106	352.882
541.235	360.984
541.363	361.055
541.491	356.843
541.619	359.693
541.747	358.055
541.875	359.764
542.003	359.528
542.131	357.346
542.260	358.528
542.388	357.504
542.516	357.646
542.644	358.362
542.772	358.165
542.900	357.409
543.028	359.575
543.156	360.362
543.285	362.409
543.413	361.543
543.541	360.551
543.669	362.724
543.797	366.291
543.925	360.913
544.053	364.205
544.181	366.008
544.310	362.331
544.438	361.669
544.566	359.157
544.694	358.567
544.822	359.961
544.950	360.063
545.078	362.559
545.206	357.346
545.335	357.764
545.463	359.472
545.591	361.827
545.719	364.701
545.847	359.866
545.975	362.276
546.103	360.252
546.231	363.961
546.360	359.850
546.488	364.189
546.616	361.740
546.744	357.969
546.872	360.898
547.000	361.646
547.128	361.693
547.256	359.394
547.385	359.008
547.513	357.213
547.641	358.488
547.769	361.913
547.897	358.307
548.025	360.913
548.153	362.142
548.281	358.126
548.410	362.937
548.538	358.283
548.666	358.031
548.794	358.748
548.922	360.228
549.050	358.394
549.178	361.370
549.306	362.575
549.435	364.394
549.563	361.031
549.691	360.843
549.819	364.504
549.947	361.890
550.075	364.339
550.203	361.102
550.331	360.866
550.460	360.567
550.588	361.630
550.716	361.969
550.844	363.929
550.972	361.976
551.100	359.480
551.228	364.165
551.356	357.252
551.485	362.819
551.613	358.780
551.741	359.276
551.869	357.835
551.997	363.780
552.125	355.512
552.253	363.370
552.381	355.142
552.510	353.850
552.638	357.693
552.766	359.732
552.894	355.512
553.022	356.087
553.150	353.449
553.278	354.244
553.406	352.732
553.535	352.394
553.663	354.157
553.791	352.504
553.919	352.370
554.047	355.228
554.175	356.504
554.303	350.331
554.431	352.000
554.560	347.047
554.688	350.504
554.816	352.291
554.944	351.748
555.072	354.307
555.200	351.520
555.328	351.780
555.456	352.386
555.585	350.039
555.713	349.858
555.841	352.071
555.969	348.449
556.097	354.118
556.225	348.504
556.353	354.016
556.481	353.260
556.610	351.811
556.738	352.165
556.866	353.425
556.994	355.488
557.122	348.764
557.250	352.992
557.378	346.803
557.506	350.614
557.635	350.622
557.763	350.598
557.891	354.913
558.019	350.780
558.147	353.654
558.275	351.197
558.403	355.323
558.531	351.929
558.660	353.512
558.788	353.189
558.916	353.291
559.044	349.472
559.172	353.039
559.300	349.094
559.428	348.425
559.556	351.142
559.685	355.213
559.813	347.843
559.941	350.622
560.069	355.291
560.197	343.953
560.325	353.480
560.453	347.441
560.581	348.843
560.710	350.031
560.838	347.331
560.966	345.157
561.094	348.551
561.222	349.661
561.350	343.354
561.478	345.945
561.606	345.646
561.735	345.906
561.863	346.843
561.991	349.520
562.119	346.984
562.247	345.307
562.375	347.378
562.503	344.543
562.631	347.819
562.760	341.787
562.888	348.480
563.016	345.181
563.144	344.669
563.272	342.504
563.400	341.252
563.528	345.874
563.656	341.220
563.785	343.323
563.913	339.236
564.041	342.441
564.169	338.858
564.297	343.898
564.425	343.150
564.553	342.945
564.681	346.000
564.810	341.882
564.938	344.346
565.066	341.346
565.194	346.315
565.322	346.299
565.450	342.291
565.578	345.756
565.706	342.819
565.835	347.055
565.963	346.787
566.091	340.756
566.219	344.693
566.347	343.236
566.475	345.969
566.603	344.354
566.731	345.606
566.860	344.693
566.988	346.575
567.116	342.811
567.244	346.378
567.372	346.787
567.500	345.780
567.628	348.709
567.756	352.339
567.885	349.268
568.013	351.488
568.141	346.787
568.269	350.071
568.397	343.189
568.525	347.622
568.653	350.433
568.781	349.953
568.910	353.197
569.038	352.157
569.166	350.472
569.294	350.512
569.422	350.260
569.550	349.614
569.678	353.181
569.806	349.850
569.935	354.512
570.063	353.307
570.191	355.843
570.319	353.732
570.447	352.205
570.575	351.622
570.703	354.709
570.831	352.654
570.960	347.409
571.088	355.134
571.216	351.992
571.344	347.646
571.472	352.307
571.600	354.512
571.728	351.717
571.856	352.480
571.985	358.047
572.113	351.630
572.241	350.709
572.369	355.480
572.497	351.945
572.625	356.953
572.753	349.543
572.881	352.787
573.010	352.118
573.138	357.591
573.266	359.701
573.394	356.654
573.522	357.252
573.650	354.386
573.778	355.039
573.906	353.669
574.035	354.709
574.163	350.709
574.291	350.732
574.419	354.591
574.547	354.346
574.675	354.622
574.803	354.543
574.931	356.283
575.060	360.614
575.188	354.457
575.316	357.291
575.444	356.764
575.572	352.638
575.700	353.425
575.828	359.488
575.956	351.921
576.085	354.646
576.213	354.378
576.341	352.079
576.469	352.591
576.597	352.055
576.725	355.465
576.853	349.543
576.981	351.142
577.110	350.457
577.238	354.535
577.366	351.110
577.494	349.772
577.622	349.402
577.750	349.094
577.878	352.102
578.006	351.669
578.135	353.614
578.263	349.378
578.391	352.740
578.519	349.512
578.647	351.465
578.775	353.780
578.903	349.512
579.031	351.614
579.160	351.669
579.288	350.047
579.416	349.685
579.544	350.402
579.672	352.110
579.800	349.992
579.928	347.276
580.056	346.094
580.185	351.520
580.313	347.472
580.441	352.567
580.569	351.362
580.697	349.150
580.825	351.457
580.953	351.173
581.081	352.315
581.210	353.213
581.338	352.346
581.466	357.780
581.594	357.472
581.722	348.835
581.850	352.992
581.978	349.921
582.106	351.913
582.235	357.850
582.363	356.551
582.491	352.858
582.619	356.134
582.747	355.764
582.875	356.575
583.003	358.000
583.131	359.661
583.260	357.520
583.388	357.976
583.516	362.173
583.644	360.228
583.772	358.921
583.900	361.984
584.028	364.921
584.156	360.441
584.285	360.236
584.413	364.764
584.541	365.197
584.669	363.339
584.797	366.370
584.925	360.543
585.053	361.992
585.181	362.638
585.310	365.591
585.438	366.535
585.566	364.055
585.694	366.055
585.822	366.874
585.950	367.205
586.078	368.449
586.206	373.417
586.335	368.268
586.463	372.567
586.591	370.173
586.719	365.685
586.847	372.575
586.975	367.906
587.103	371.929
587.231	366.047
587.360	370.693
587.488	369.772
587.616	370.236
587.744	374.496
587.872	371.748
588.000	370.102
588.128	373.882
588.256	376.252
588.385	367.906
588.513	369.252
588.641	374.717
588.769	375.244
588.897	371.402
589.025	370.339
589.153	372.409
589.281	366.071
589.410	370.417
589.538	366.748
589.666	372.031
589.794	370.480
589.922	371.291
590.050	369.787
590.178	370.504
590.306	369.685
590.435	366.181
590.563	366.189
590.691	370.244
590.819	364.921
590.947	373.843
591.075	369.346
591.203	368.283
591.331	370.118
591.460	373.386
591.588	367.504
591.716	370.110
591.844	367.291
591.972	369.598
592.100	364.606
592.228	371.504
592.356	373.677
592.485	366.024
592.613	370.724
592.741	367.543
592.869	369.622
592.997	370.803
593.125	372.504
593.253	369.969
593.381	371.937
593.510	370.142
593.638	368.992
593.766	369.039
593.894	370.370
594.022	374.150
594.150	373.543
594.278	374.205
594.406	371.827
594.535	373.024
594.663	372.646
594.791	374.480
594.919	371.819
595.047	375.236
595.175	373.780
595.303	373.835
595.431	372.756
595.560	375.669
595.688	380.449
595.816	377.244
595.944	375.323
596.072	378.772
596.200	377.693
596.328	376.496
596.456	380.535
596.585	375.465
596.713	380.654
596.841	373.134
596.969	376.858
597.097	372.866
597.225	379.472
597.353	377.165
597.481	378.654
597.610	372.772
597.738	373.984
597.866	374.047
597.994	374.402
598.122	377.717
598.250	372.866
598.378	378.110
598.506	378.252
598.635	375.937
598.763	375.795
598.891	377.591
599.019	378.575
599.147	371.189
599.275	376.795
599.403	373.945
599.531	378.843
599.660	375.181
599.788	377.520
599.916	379.677
600.044	378.142
600.172	379.795
600.300	376.654
600.428	379.331
600.556	380.031
600.685	373.291
600.813	373.850
600.941	380.677
601.069	377.787
601.197	381.283
601.325	375.717
601.453	376.173
601.581	377.142
601.710	379.622
601.838	382.094
601.966	376.961
602.094	383.417
602.222	378.874
602.350	379.693
602.478	377.992
602.606	385.024
602.735	379.654
602.863	386.252
602.991	381.228
603.119	382.260
603.247	382.488
603.375	383.772
603.503	384.063
603.631	382.937
603.760	384.000
603.888	384.173
604.016	387.630
604.144	384.205
604.272	386.244
604.400	386.228
604.528	382.102
604.656	389.063
604.785	387.346
604.913	388.693
605.041	388.921
605.169	388.874
605.297	385.370
605.425	385.213
605.553	382.913
605.681	385.118
605.810	387.717
605.938	386.102
606.066	387.480
606.194	386.260
606.322	385.346
606.450	388.094
606.578	389.079
606.706	388.205
606.835	386.654
606.963	388.236
607.091	384.142
607.219	387.354
607.347	382.496
607.475	393.685
607.603	387.709
607.731	387.606
607.860	387.575
607.988	386.858
608.116	387.827
608.244	383.756
608.372	386.346
608.500	382.480
608.628	385.898
608.756	383.386
608.885	386.213
609.013	385.008
609.141	382.528
609.269	385.685
609.397	384.189
609.525	380.472
609.653	378.567
609.781	385.220
609.910	384.394
610.038	379.260
610.166	377.969
610.294	385.260
610.422	383.016
610.550	382.567
610.678	382.638
610.806	382.630
610.935	382.205
611.063	382.961
611.191	377.236
611.319	384.339
611.447	375.528
611.575	377.283
611.703	375.283
611.831	379.197
611.960	379.118
612.088	383.000
612.216	378.543
612.344	381.819
612.472	374.756
612.600	378.504
612.728	380.465
612.856	377.291
612.985	377.535
613.113	379.717
613.241	376.512
613.369	377.732
613.497	373.433
613.625	376.433
613.753	382.189
613.881	376.630
614.010	372.953
614.138	374.079
614.266	374.654
614.394	371.945
614.522	377.087
614.650	378.575
614.778	374.669
614.906	376.795
615.035	372.953
615.163	374.181
615.291	375.039
615.419	375.157
615.547	373.449
615.675	380.055
615.803	375.150
615.931	377.024
616.060	376.087
616.188	370.992
616.316	379.992
616.444	372.008
616.572	376.937
616.700	369.803
616.828	379.520
616.956	375.079
617.085	376.016
617.213	375.165
617.341	373.929
617.469	375.283
617.597	376.220
617.725	377.724
617.853	372.567
617.981	370.677
618.110	375.504
618.238	371.969
618.366	374.354
618.494	377.433
618.622	371.646
618.750	375.654
618.878	375.654
619.006	374.110
619.135	376.591
619.263	377.425
619.391	377.394
619.519	375.291
619.647	377.803
619.775	373.496
619.903	380.071
620.031	379.890
620.160	379.520
620.288	372.976
620.416	376.047
620.544	376.858
620.672	377.417
620.800	377.142
620.928	377.850
621.056	376.898
621.185	377.268
621.313	378.409
621.441	379.315
621.569	380.961
621.697	378.559
621.825	379.701
621.953	380.449
622.081	380.937
622.210	380.047
622.338	380.346
622.466	377.307
622.594	382.709
622.722	378.835
622.850	381.488
622.978	380.260
623.106	378.654
623.235	384.858
623.363	379.559
623.491	375.630
623.619	380.583
623.747	374.110
623.875	379.520
624.003	376.008
624.131	375.031
624.260	369.772
624.388	379.772
624.516	379.000
624.644	374.520
624.772	377.008
624.900	377.874
625.028	378.677
625.156	382.717
625.285	374.835
625.413	373.906
625.541	373.409
625.669	376.969
625.797	374.520
625.925	374.583
626.053	378.331
626.181	372.732
626.310	375.732
626.438	375.417
626.566	373.890
626.694	376.772
626.822	370.417
626.950	374.835
627.078	374.583
627.206	376.339
627.335	372.236
627.463	373.512
627.591	374.622
627.719	370.244
627.847	375.858
627.975	371.976
628.103	369.244
628.231	372.512
628.360	369.150
628.488	371.976
628.616	369.740
628.744	367.394
628.872	370.354
629.000	368.583
629.128	373.559
629.256	372.323
629.385	368.276
629.513	369.504
629.641	371.488
629.769	364.150
629.897	371.724
630.025	368.331
630.153	372.323
630.281	363.693
630.410	364.717
630.538	369.118
630.666	366.898
630.794	369.606
630.922	366.205
631.050	369.992
631.178	368.969
631.306	365.843
631.435	366.803
631.563	368.323
631.691	364.134
631.819	366.969
631.947	368.535
632.075	365.118
632.203	366.346
632.331	364.591
632.460	361.228
632.588	368.465
632.716	366.362
632.844	360.181
632.972	365.583
633.100	361.732
633.228	363.433
633.356	363.559
633.485	366.740
633.613	369.677
633.741	362.299
633.869	361.504
633.997	364.945
634.125	358.126
634.253	355.299
634.381	360.079
634.510	363.717
634.638	357.189
634.766	357.913
634.894	358.205
635.022	356.764
635.150	360.858
635.278	359.669
635.406	358.575
635.535	358.268
635.663	359.701
635.791	355.441
635.919	358.260
636.047	354.425
636.175	355.614
636.303	357.362
636.431	359.047
636.560	360.591
636.688	354.622
636.816	357.646
636.944	351.669
637.072	358.197
637.200	352.528
637.328	350.472
637.456	356.150
637.585	351.654
637.713	352.622
637.841	350.795
637.969	352.346
638.097	350.142
638.225	349.898
638.353	355.606
638.481	352.425
638.610	351.197
638.738	355.252
638.866	347.701
638.994	352.795
639.122	350.252
639.250	355.205
639.378	350.764
639.506	348.142
639.635	349.858
639.763	345.890
639.891	346.677
640.019	350.425
640.147	348.409
640.275	346.276
640.403	351.661
640.531	348.079
640.660	349.252
640.788	350.787
640.916	347.213
641.044	354.787
641.172	346.370
641.300	351.173
641.428	347.252
641.556	350.331
641.685	344.087
641.813	343.008
641.941	348.000
642.069	349.882
642.197	346.614
642.325	344.898
642.453	347.685
642.581	346.142
642.710	345.622
642.838	346.732
642.966	344.197
643.094	346.339
643.222	343.969
643.350	346.685
643.478	347.126
643.606	346.378
643.735	342.913
643.863	345.378
643.991	344.496
644.119	344.945
644.247	348.890
644.375	343.630
644.503	344.315
644.631	344.811
644.760	344.346
644.888	344.976
645.016	342.764
645.144	348.976
645.272	345.953
645.400	344.378
645.528	344.039
645.656	344.646
645.785	341.937
645.913	337.630
646.041	341.512
646.169	340.260
646.297	339.307
646.425	339.268
646.553	337.094
646.681	336.094
646.810	340.142
646.938	341.417
647.066	339.693
647.194	338.520
647.322	340.354
647.450	334.331
647.578	339.276
647.706	336.772
647.835	338.402
647.963	336.803
648.091	336.913
648.219	335.732
648.347	336.134
648.475	332.559
648.603	333.457
648.731	335.323
648.860	331.543
648.988	331.283
649.116	332.118
649.244	329.606
649.372	331.417
649.500	330.724
649.628	332.937
649.756	332.535
649.885	328.339
650.013	329.567
650.141	320.417
650.269	326.189
650.397	324.583
650.525	323.835
650.653	322.921
650.781	323.409
650.910	318.661
651.038	321.331
651.166	320.228
651.294	320.134
651.422	315.409
651.550	320.346
651.678	321.039
651.806	320.339
651.935	317.268
652.063	311.394
652.191	316.772
652.319	318.575
652.447	316.433
652.575	317.677
652.703	315.323
652.831	315.740
652.960	308.567
653.088	313.646
653.216	312.472
653.344	309.165
653.472	310.835
653.600	312.575
653.728	309.520
653.856	309.228
653.985	309.528
654.113	308.276
654.241	309.205
654.369	305.323
654.497	308.260
654.625	306.252
654.753	309.189
654.881	304.205
655.010	306.094
655.138	306.220
655.266	304.087
655.394	302.165
655.522	302.150
655.650	296.906
655.778	301.047
655.906	301.858
656.035	302.906
656.163	298.386
656.291	295.976
656.419	299.378
656.547	299.575
656.675	297.339
656.803	296.929
656.931	301.937
657.060	297.331
657.188	301.827
657.316	294.370
657.444	293.055
657.572	296.457
657.700	298.386
657.828	296.449
657.956	296.299
658.085	296.984
658.213	294.102
658.341	296.843
658.469	294.457
658.597	292.039
658.725	293.394
658.853	291.732
658.981	288.693
659.110	290.094
659.238	292.024
659.366	291.126
659.494	287.307
659.622	288.535
659.750	291.031
659.878	288.362
660.006	291.291
660.135	290.449
660.263	288.441
660.391	287.764
660.519	288.378
660.647	288.260
660.775	288.693
660.903	287.220
661.031	284.024
661.160	286.535
661.288	283.748
661.416	287.512
661.544	284.362
661.672	278.315
661.800	286.591
661.928	287.283
662.056	282.638
662.185	279.472
662.313	285.000
662.441	285.906
662.569	283.567
662.697	284.079
662.825	281.528
662.953	282.669
663.081	275.929
663.210	282.591
663.338	282.307
663.466	282.252
663.594	278.787
663.722	274.646
663.850	274.748
663.978	277.197
664.106	281.677
664.235	281.512
664.363	276.803
664.491	274.819
664.619	280.079
664.747	275.205
664.875	275.654
665.003	279.504
