90-110-90_at_679.99nm_cut_at_1250.00Y_01.dat
24.01.2024
13:30:46
cut middle at Y: 1250.00
top cursor: 1310 down cursor: 1190 mean of: 120 lines , 2560 datapoints
wavelength(nm)	intensity[arb. units]
515.994	327.625
516.122	308.042
516.250	306.667
516.378	300.417
516.506	307.492
516.635	307.750
516.763	305.083
516.891	306.608
517.019	311.417
517.147	303.892
517.275	305.442
517.403	310.192
517.531	309.283
517.660	306.258
517.788	305.308
517.916	314.267
518.044	309.158
518.172	308.975
518.300	309.650
518.428	309.500
518.556	309.467
518.685	311.117
518.813	311.917
518.941	311.117
519.069	313.742
519.197	315.458
519.325	315.583
519.453	312.208
519.581	316.142
519.710	312.125
519.838	312.992
519.966	314.700
520.094	319.850
520.222	315.325
520.350	315.850
520.478	320.200
520.606	320.158
520.735	318.742
520.863	323.675
520.991	323.192
521.119	317.633
521.247	323.042
521.375	322.508
521.503	323.575
521.631	324.300
521.760	328.250
521.888	323.817
522.016	330.108
522.144	326.342
522.272	328.308
522.400	328.283
522.528	331.558
522.656	328.058
522.785	332.892
522.913	331.325
523.041	328.192
523.169	327.283
523.297	336.008
523.425	331.067
523.553	334.300
523.681	332.200
523.810	332.267
523.938	334.425
524.066	333.617
524.194	332.917
524.322	337.117
524.450	328.275
524.578	333.225
524.706	335.342
524.835	332.833
524.963	335.175
525.091	332.058
525.219	336.467
525.347	330.058
525.475	332.542
525.603	330.300
525.731	337.950
525.860	334.742
525.988	331.800
526.116	330.875
526.244	336.500
526.372	330.783
526.500	332.275
526.628	337.492
526.756	333.550
526.885	336.742
527.013	337.192
527.141	335.733
527.269	333.875
527.397	335.617
527.525	339.875
527.653	337.883
527.781	337.358
527.910	337.675
528.038	337.783
528.166	340.017
528.294	339.533
528.422	339.908
528.550	341.900
528.678	342.333
528.806	342.225
528.935	343.833
529.063	347.417
529.191	344.742
529.319	343.525
529.447	345.208
529.575	347.983
529.703	345.617
529.831	345.625
529.960	345.500
530.088	345.950
530.216	349.025
530.344	348.475
530.472	347.892
530.600	351.017
530.728	351.592
530.856	352.767
530.985	351.325
531.113	350.500
531.241	351.492
531.369	353.233
531.497	353.833
531.625	353.475
531.753	350.783
531.881	353.675
532.010	355.942
532.138	355.550
532.266	347.258
532.394	351.858
532.522	352.267
532.650	352.050
532.778	353.975
532.906	350.958
533.035	355.733
533.163	354.292
533.291	350.467
533.419	354.142
533.547	356.600
533.675	356.158
533.803	348.675
533.931	351.825
534.060	353.117
534.188	352.367
534.316	352.242
534.444	348.075
534.572	353.325
534.700	349.475
534.828	354.908
534.956	351.917
535.085	355.425
535.213	352.650
535.341	354.208
535.469	354.675
535.597	355.567
535.725	356.925
535.853	353.967
535.981	356.342
536.110	363.700
536.238	359.733
536.366	360.908
536.494	364.600
536.622	362.325
536.750	363.225
536.878	366.783
537.006	370.550
537.135	365.625
537.263	367.567
537.391	370.333
537.519	365.392
537.647	371.200
537.775	369.767
537.903	369.467
538.031	362.675
538.160	371.967
538.288	368.800
538.416	376.300
538.544	368.542
538.672	374.033
538.800	375.858
538.928	373.650
539.056	375.858
539.185	374.758
539.313	374.758
539.441	374.392
539.569	372.367
539.697	375.158
539.825	379.500
539.953	378.425
540.081	374.583
540.210	374.175
540.338	374.175
540.466	379.158
540.594	377.708
540.722	376.142
540.850	380.025
540.978	378.475
541.106	380.567
541.235	380.800
541.363	379.242
541.491	374.950
541.619	378.767
541.747	373.775
541.875	376.300
542.003	378.250
542.131	376.658
542.260	379.108
542.388	376.767
542.516	381.375
542.644	382.150
542.772	379.233
542.900	374.842
543.028	379.742
543.156	379.458
543.285	382.275
543.413	376.075
543.541	379.000
543.669	383.850
543.797	385.617
543.925	382.917
544.053	381.517
544.181	379.475
544.310	382.558
544.438	379.700
544.566	385.408
544.694	383.075
544.822	380.708
544.950	387.808
545.078	384.592
545.206	384.500
545.335	385.800
545.463	382.608
545.591	381.758
545.719	385.833
545.847	383.775
545.975	385.733
546.103	388.283
546.231	387.342
546.360	389.242
546.488	391.017
546.616	389.792
546.744	389.908
546.872	387.550
547.000	390.542
547.128	389.800
547.256	390.425
547.385	388.558
547.513	393.842
547.641	393.425
547.769	395.250
547.897	389.567
548.025	392.675
548.153	393.292
548.281	390.325
548.410	391.567
548.538	393.317
548.666	389.642
548.794	387.850
548.922	399.225
549.050	396.975
549.178	394.008
549.306	393.450
549.435	395.708
549.563	394.350
549.691	391.033
549.819	394.983
549.947	400.325
550.075	395.908
550.203	399.083
550.331	394.317
550.460	396.050
550.588	391.842
550.716	394.858
550.844	391.525
550.972	396.267
551.100	392.092
551.228	397.142
551.356	391.700
551.485	397.317
551.613	398.125
551.741	390.067
551.869	392.508
551.997	390.433
552.125	389.200
552.253	394.558
552.381	391.317
552.510	387.858
552.638	390.125
552.766	390.242
552.894	387.008
553.022	390.700
553.150	389.583
553.278	388.792
553.406	389.333
553.535	383.333
553.663	389.658
553.791	387.142
553.919	391.792
554.047	390.383
554.175	387.117
554.303	390.592
554.431	386.700
554.560	387.392
554.688	392.983
554.816	387.875
554.944	389.975
555.072	387.550
555.200	390.625
555.328	388.392
555.456	394.000
555.585	393.142
555.713	386.425
555.841	393.100
555.969	389.050
556.097	397.108
556.225	391.733
556.353	398.083
556.481	397.883
556.610	397.725
556.738	402.308
556.866	393.983
556.994	395.467
557.122	394.475
557.250	402.408
557.378	395.808
557.506	394.242
557.635	397.758
557.763	398.808
557.891	403.767
558.019	398.458
558.147	405.258
558.275	396.508
558.403	401.833
558.531	401.883
558.660	402.217
558.788	403.433
558.916	404.575
559.044	402.733
559.172	402.150
559.300	405.233
559.428	403.375
559.556	409.967
559.685	405.583
559.813	405.600
559.941	403.008
560.069	408.517
560.197	406.125
560.325	408.650
560.453	401.717
560.581	406.883
560.710	404.600
560.838	406.767
560.966	406.400
561.094	411.458
561.222	406.683
561.350	406.725
561.478	401.792
561.606	409.575
561.735	406.100
561.863	402.942
561.991	407.217
562.119	402.333
562.247	403.075
562.375	406.958
562.503	406.742
562.631	401.742
562.760	405.100
562.888	409.250
563.016	406.175
563.144	403.217
563.272	401.492
563.400	400.825
563.528	404.675
563.656	409.350
563.785	400.700
563.913	403.242
564.041	401.875
564.169	404.750
564.297	401.108
564.425	401.125
564.553	406.325
564.681	408.317
564.810	408.242
564.938	403.992
565.066	404.133
565.194	412.467
565.322	407.458
565.450	405.700
565.578	407.625
565.706	406.533
565.835	405.858
565.963	406.917
566.091	407.558
566.219	408.783
566.347	407.333
566.475	405.033
566.603	409.592
566.731	407.150
566.860	410.700
566.988	407.142
567.116	411.550
567.244	413.192
567.372	413.492
567.500	412.250
567.628	413.800
567.756	416.808
567.885	421.158
568.013	421.625
568.141	414.367
568.269	420.075
568.397	413.208
568.525	417.867
568.653	421.250
568.781	418.958
568.910	424.175
569.038	420.758
569.166	420.600
569.294	422.233
569.422	426.500
569.550	420.325
569.678	426.483
569.806	424.375
569.935	426.450
570.063	431.475
570.191	429.292
570.319	428.492
570.447	430.533
570.575	432.725
570.703	435.817
570.831	433.225
570.960	432.350
571.088	433.600
571.216	433.133
571.344	433.833
571.472	435.208
571.600	435.200
571.728	430.308
571.856	438.367
571.985	433.233
572.113	440.667
572.241	439.775
572.369	440.558
572.497	437.242
572.625	443.217
572.753	437.217
572.881	442.008
573.010	442.808
573.138	445.908
573.266	446.258
573.394	441.117
573.522	442.233
573.650	445.258
573.778	450.658
573.906	438.033
574.035	444.717
574.163	444.350
574.291	441.842
574.419	446.250
574.547	444.008
574.675	449.617
574.803	445.492
574.931	447.175
575.060	449.517
575.188	446.225
575.316	445.483
575.444	448.025
575.572	447.958
575.700	448.150
575.828	448.667
575.956	447.333
576.085	446.767
576.213	449.983
576.341	444.400
576.469	444.592
576.597	440.883
576.725	444.433
576.853	446.142
576.981	444.200
577.110	445.817
577.238	451.317
577.366	446.800
577.494	439.983
577.622	444.908
577.750	449.192
577.878	445.158
578.006	445.658
578.135	442.617
578.263	440.375
578.391	445.158
578.519	445.858
578.647	445.300
578.775	445.208
578.903	443.425
579.031	445.742
579.160	447.958
579.288	446.092
579.416	445.775
579.544	443.400
579.672	443.267
579.800	444.200
579.928	446.025
580.056	441.983
580.185	443.492
580.313	442.000
580.441	443.967
580.569	451.183
580.697	446.067
580.825	442.208
580.953	451.967
581.081	448.575
581.210	449.125
581.338	450.958
581.466	446.583
581.594	447.375
581.722	448.575
581.850	450.150
581.978	451.375
582.106	450.575
582.235	454.858
582.363	456.642
582.491	454.725
582.619	452.025
582.747	456.900
582.875	455.700
583.003	464.558
583.131	456.833
583.260	456.475
583.388	460.817
583.516	460.725
583.644	460.317
583.772	465.625
583.900	466.183
584.028	466.200
584.156	470.375
584.285	471.550
584.413	473.867
584.541	472.325
584.669	473.242
584.797	468.592
584.925	467.675
585.053	472.625
585.181	471.000
585.310	475.733
585.438	475.358
585.566	475.225
585.694	486.908
585.822	482.417
585.950	479.450
586.078	481.208
586.206	480.217
586.335	483.792
586.463	485.583
586.591	485.617
586.719	489.375
586.847	490.367
586.975	486.867
587.103	490.917
587.231	489.217
587.360	495.542
587.488	494.908
587.616	490.583
587.744	494.408
587.872	491.775
588.000	492.625
588.128	495.600
588.256	495.908
588.385	490.083
588.513	493.608
588.641	494.333
588.769	503.917
588.897	495.150
589.025	496.308
589.153	498.092
589.281	495.750
589.410	500.342
589.538	501.992
589.666	501.767
589.794	501.350
589.922	504.275
590.050	499.317
590.178	494.567
590.306	500.550
590.435	505.850
590.563	498.208
590.691	505.708
590.819	505.583
590.947	505.842
591.075	503.058
591.203	501.525
591.331	510.225
591.460	504.292
591.588	505.517
591.716	506.317
591.844	503.750
591.972	511.142
592.100	507.992
592.228	507.300
592.356	510.783
592.485	506.542
592.613	509.067
592.741	512.342
592.869	510.742
592.997	511.525
593.125	513.367
593.253	520.150
593.381	512.250
593.510	518.642
593.638	514.875
593.766	511.933
593.894	517.500
594.022	515.775
594.150	517.300
594.278	524.242
594.406	522.267
594.535	520.917
594.663	524.125
594.791	519.150
594.919	523.067
595.047	526.067
595.175	520.917
595.303	524.275
595.431	526.717
595.560	533.125
595.688	524.233
595.816	526.783
595.944	531.058
596.072	534.008
596.200	530.567
596.328	533.333
596.456	538.583
596.585	536.483
596.713	539.325
596.841	536.367
596.969	538.833
597.097	546.275
597.225	546.283
597.353	539.525
597.481	537.575
597.610	546.533
597.738	542.667
597.866	545.817
597.994	543.950
598.122	553.492
598.250	549.850
598.378	545.225
598.506	550.067
598.635	555.733
598.763	558.142
598.891	552.067
599.019	556.625
599.147	548.675
599.275	553.717
599.403	554.383
599.531	551.825
599.660	557.300
599.788	559.092
599.916	553.450
600.044	564.292
600.172	564.250
600.300	562.500
600.428	564.683
600.556	564.608
600.685	562.583
600.813	556.092
600.941	571.750
601.069	567.842
601.197	573.808
601.325	571.508
601.453	569.325
601.581	574.025
601.710	572.667
601.838	578.383
601.966	573.600
602.094	578.817
602.222	579.208
602.350	576.533
602.478	580.708
602.606	585.508
602.735	581.933
602.863	586.400
602.991	588.250
603.119	590.558
603.247	589.258
603.375	591.975
603.503	592.217
603.631	594.250
603.760	594.525
603.888	595.183
604.016	598.442
604.144	600.592
604.272	608.900
604.400	601.533
604.528	596.658
604.656	608.275
604.785	607.233
604.913	613.575
605.041	611.008
605.169	609.967
605.297	610.617
605.425	611.508
605.553	616.100
605.681	616.725
605.810	619.850
605.938	620.275
606.066	617.000
606.194	617.467
606.322	625.467
606.450	626.250
606.578	624.817
606.706	628.208
606.835	623.325
606.963	624.758
607.091	623.942
607.219	625.067
607.347	628.958
607.475	632.508
607.603	629.708
607.731	631.683
607.860	625.800
607.988	636.400
608.116	631.425
608.244	628.483
608.372	629.675
608.500	637.442
608.628	634.150
608.756	635.900
608.885	629.642
609.013	633.583
609.141	634.558
609.269	639.533
609.397	639.617
609.525	634.892
609.653	638.025
609.781	639.050
609.910	636.392
610.038	634.975
610.166	645.958
610.294	635.717
610.422	643.342
610.550	629.692
610.678	638.667
610.806	636.058
610.935	640.158
611.063	645.025
611.191	639.167
611.319	644.525
611.447	644.783
611.575	642.583
611.703	637.058
611.831	650.892
611.960	647.275
612.088	648.775
612.216	647.092
612.344	646.025
612.472	644.725
612.600	644.350
612.728	646.733
612.856	647.325
612.985	636.775
613.113	650.850
613.241	650.825
613.369	648.642
613.497	653.350
613.625	655.642
613.753	649.867
613.881	646.608
614.010	651.950
614.138	649.125
614.266	647.792
614.394	651.975
614.522	653.142
614.650	656.867
614.778	652.717
614.906	664.833
615.035	656.358
615.163	658.508
615.291	655.775
615.419	664.525
615.547	659.883
615.675	661.367
615.803	668.275
615.931	667.842
616.060	665.092
616.188	665.000
616.316	663.625
616.444	669.783
616.572	666.842
616.700	673.600
616.828	676.508
616.956	680.942
617.085	680.225
617.213	684.342
617.341	677.717
617.469	679.008
617.597	683.258
617.725	684.983
617.853	681.033
617.981	680.292
618.110	686.350
618.238	689.108
618.366	695.792
618.494	694.217
618.622	692.833
618.750	685.217
618.878	699.683
619.006	700.133
619.135	704.142
619.263	699.600
619.391	705.158
619.519	699.575
619.647	711.592
619.775	711.358
619.903	706.192
620.031	712.083
620.160	715.908
620.288	707.400
620.416	724.225
620.544	719.308
620.672	723.067
620.800	720.192
620.928	728.067
621.056	725.858
621.185	724.067
621.313	722.025
621.441	729.533
621.569	743.800
621.697	735.650
621.825	738.975
621.953	736.500
622.081	735.425
622.210	736.575
622.338	741.367
622.466	741.658
622.594	748.742
622.722	750.358
622.850	748.958
622.978	756.900
623.106	751.875
623.235	757.967
623.363	751.158
623.491	758.000
623.619	746.692
623.747	750.792
623.875	761.283
624.003	752.300
624.131	758.350
624.260	756.267
624.388	765.808
624.516	767.900
624.644	762.433
624.772	762.592
624.900	770.775
625.028	760.292
625.156	776.292
625.285	763.867
625.413	769.742
625.541	774.192
625.669	769.658
625.797	774.667
625.925	768.608
626.053	769.250
626.181	782.192
626.310	777.592
626.438	781.250
626.566	776.175
626.694	767.508
626.822	776.358
626.950	780.258
627.078	790.058
627.206	781.375
627.335	788.408
627.463	793.375
627.591	788.950
627.719	785.292
627.847	794.100
627.975	791.283
628.103	787.683
628.231	799.742
628.360	793.850
628.488	794.083
628.616	791.233
628.744	790.300
628.872	797.250
629.000	796.017
629.128	796.683
629.256	800.550
629.385	800.067
629.513	793.467
629.641	796.667
629.769	797.267
629.897	799.883
630.025	800.658
630.153	800.567
630.281	807.775
630.410	800.150
630.538	815.267
630.666	804.458
630.794	805.542
630.922	801.858
631.050	802.367
631.178	806.017
631.306	807.150
631.435	806.942
631.563	810.517
631.691	802.825
631.819	810.992
631.947	818.158
632.075	811.617
632.203	819.283
632.331	817.133
632.460	809.367
632.588	827.333
632.716	824.417
632.844	812.433
632.972	819.425
633.100	819.325
633.228	824.600
633.356	824.592
633.485	823.283
633.613	824.958
633.741	816.408
633.869	824.442
633.997	831.150
634.125	818.025
634.253	820.142
634.381	819.450
634.510	824.592
634.638	818.767
634.766	825.808
634.894	826.042
635.022	819.733
635.150	823.708
635.278	836.042
635.406	829.292
635.535	829.433
635.663	835.675
635.791	824.150
635.919	831.467
636.047	826.292
636.175	831.033
636.303	829.767
636.431	835.775
636.560	835.367
636.688	828.833
636.816	827.500
636.944	831.200
637.072	835.783
637.200	837.458
637.328	834.333
637.456	846.642
637.585	832.058
637.713	836.225
637.841	839.642
637.969	836.083
638.097	833.033
638.225	847.450
638.353	847.983
638.481	847.750
638.610	848.400
638.738	837.742
638.866	849.567
638.994	851.775
639.122	851.433
639.250	853.767
639.378	861.150
639.506	848.175
639.635	849.933
639.763	847.575
639.891	851.425
640.019	854.533
640.147	857.233
640.275	857.125
640.403	855.042
640.531	855.008
640.660	861.242
640.788	872.658
640.916	860.500
641.044	875.892
641.172	866.700
641.300	875.467
641.428	874.125
641.556	873.675
641.685	867.767
641.813	869.792
641.941	873.550
642.069	880.000
642.197	875.058
642.325	874.825
642.453	885.000
642.581	890.592
642.710	872.458
642.838	884.025
642.966	880.700
643.094	884.458
643.222	883.300
643.350	883.767
643.478	894.167
643.606	894.883
643.735	889.675
643.863	890.625
643.991	898.250
644.119	903.442
644.247	892.408
644.375	901.233
644.503	910.050
644.631	901.125
644.760	898.408
644.888	910.617
645.016	908.308
645.144	917.217
645.272	907.050
645.400	915.342
645.528	911.592
645.656	901.742
645.785	908.550
645.913	910.433
646.041	922.267
646.169	901.858
646.297	910.275
646.425	919.667
646.553	906.117
646.681	919.375
646.810	915.400
646.938	925.733
647.066	915.958
647.194	914.817
647.322	918.467
647.450	916.700
647.578	926.308
647.706	915.342
647.835	928.133
647.963	917.475
648.091	930.842
648.219	916.833
648.347	923.592
648.475	922.625
648.603	923.142
648.731	922.625
648.860	922.550
648.988	934.142
649.116	925.108
649.244	914.333
649.372	919.117
649.500	920.800
649.628	923.800
649.756	926.758
649.885	914.592
650.013	913.475
650.141	904.092
650.269	909.183
650.397	918.450
650.525	917.592
650.653	918.033
650.781	904.967
650.910	911.858
651.038	907.067
651.166	913.258
651.294	904.308
651.422	909.975
651.550	907.667
651.678	897.192
651.806	896.033
651.935	905.883
652.063	890.525
652.191	899.642
652.319	911.808
652.447	900.617
652.575	906.350
652.703	895.100
652.831	886.008
652.960	892.625
653.088	891.892
653.216	891.808
653.344	897.192
653.472	894.525
653.600	895.333
653.728	883.717
653.856	889.433
653.985	896.975
654.113	899.167
654.241	901.050
654.369	895.833
654.497	907.492
654.625	893.200
654.753	898.683
654.881	895.892
655.010	899.042
655.138	897.017
655.266	894.775
655.394	879.592
655.522	892.892
655.650	880.425
655.778	893.192
655.906	895.242
656.035	895.208
656.163	887.267
656.291	892.825
656.419	895.600
656.547	890.992
656.675	888.192
656.803	886.900
656.931	900.767
657.060	890.542
657.188	894.175
657.316	895.917
657.444	894.350
657.572	897.583
657.700	884.367
657.828	891.292
657.956	904.858
658.085	905.933
658.213	894.958
658.341	895.792
658.469	903.050
658.597	900.592
658.725	901.958
658.853	896.117
658.981	893.933
659.110	895.433
659.238	890.958
659.366	897.883
659.494	900.808
659.622	893.000
659.750	906.792
659.878	898.875
660.006	898.517
660.135	897.275
660.263	901.600
660.391	891.158
660.519	896.383
660.647	902.833
660.775	895.317
660.903	895.075
661.031	894.625
661.160	897.742
661.288	900.367
661.416	910.392
661.544	895.292
661.672	891.975
661.800	897.408
661.928	901.958
662.056	890.642
662.185	897.850
662.313	893.725
662.441	897.092
662.569	901.917
662.697	894.867
662.825	903.808
662.953	903.633
663.081	895.925
663.210	899.158
663.338	904.383
663.466	899.117
663.594	892.617
663.722	887.675
663.850	887.267
663.978	889.692
664.106	894.608
664.235	898.858
664.363	899.917
664.491	886.908
664.619	899.533
664.747	892.233
664.875	894.617
665.003	887.808
