90-70-unpol_at_679.99nm_cut_at_1276.00Y_01.dat
24.01.2024
13:25:20
cut middle at Y: 1276.00
top cursor: 1337 down cursor: 1215 mean of: 122 lines , 2560 datapoints
wavelength(nm)	intensity[arb. units]
515.994	1261.467
516.122	1189.279
516.250	1172.295
516.378	1165.066
516.506	1162.795
516.635	1177.664
516.763	1168.869
516.891	1179.148
517.019	1183.402
517.147	1180.787
517.275	1186.541
517.403	1192.115
517.531	1167.631
517.660	1183.090
517.788	1176.484
517.916	1187.066
518.044	1170.541
518.172	1189.213
518.300	1193.713
518.428	1179.066
518.556	1185.041
518.685	1185.434
518.813	1192.877
518.941	1192.025
519.069	1194.016
519.197	1188.615
519.325	1201.451
519.453	1195.951
519.581	1213.156
519.710	1202.303
519.838	1208.656
519.966	1212.475
520.094	1213.852
520.222	1214.254
520.350	1218.287
520.478	1224.123
520.606	1225.016
520.735	1218.910
520.863	1235.582
520.991	1240.180
521.119	1237.746
521.247	1244.951
521.375	1242.090
521.503	1253.443
521.631	1249.811
521.760	1260.926
521.888	1246.426
522.016	1256.861
522.144	1254.213
522.272	1266.418
522.400	1277.861
522.528	1289.992
522.656	1282.049
522.785	1289.484
522.913	1280.057
523.041	1278.926
523.169	1282.164
523.297	1282.951
523.425	1289.148
523.553	1295.328
523.681	1299.680
523.810	1297.951
523.938	1308.844
524.066	1294.393
524.194	1302.344
524.322	1309.090
524.450	1309.852
524.578	1294.139
524.706	1309.803
524.835	1302.377
524.963	1304.795
525.091	1306.303
525.219	1302.172
525.347	1292.139
525.475	1305.746
525.603	1303.836
525.731	1317.828
525.860	1312.254
525.988	1292.689
526.116	1304.107
526.244	1308.844
526.372	1296.107
526.500	1306.844
526.628	1318.115
526.756	1312.352
526.885	1311.680
527.013	1309.139
527.141	1315.344
527.269	1314.893
527.397	1313.549
527.525	1315.352
527.653	1308.025
527.781	1313.180
527.910	1326.623
528.038	1324.508
528.166	1337.057
528.294	1330.451
528.422	1329.779
528.550	1326.680
528.678	1336.418
528.806	1330.074
528.935	1344.303
529.063	1334.721
529.191	1342.385
529.319	1339.795
529.447	1352.189
529.575	1346.680
529.703	1343.344
529.831	1356.172
529.960	1350.811
530.088	1346.918
530.216	1368.820
530.344	1342.238
530.472	1366.533
530.600	1363.107
530.728	1367.541
530.856	1367.197
530.985	1377.311
531.113	1362.418
531.241	1368.549
531.369	1385.623
531.497	1376.328
531.625	1365.213
531.753	1372.787
531.881	1390.861
532.010	1384.385
532.138	1377.549
532.266	1378.287
532.394	1376.246
532.522	1358.180
532.650	1368.828
532.778	1374.951
532.906	1359.607
533.035	1375.811
533.163	1361.844
533.291	1347.770
533.419	1357.516
533.547	1360.713
533.675	1369.205
533.803	1357.369
533.931	1360.787
534.060	1366.033
534.188	1361.721
534.316	1367.574
534.444	1362.205
534.572	1371.287
534.700	1371.418
534.828	1355.738
534.956	1364.320
535.085	1375.467
535.213	1380.885
535.341	1384.656
535.469	1380.885
535.597	1377.164
535.725	1396.443
535.853	1398.689
535.981	1389.393
536.110	1402.926
536.238	1405.434
536.366	1395.615
536.494	1398.197
536.622	1414.066
536.750	1415.770
536.878	1424.402
537.006	1420.844
537.135	1438.639
537.263	1427.803
537.391	1435.328
537.519	1432.984
537.647	1436.664
537.775	1448.623
537.903	1448.033
538.031	1440.943
538.160	1457.566
538.288	1449.295
538.416	1464.230
538.544	1452.123
538.672	1453.787
538.800	1456.967
538.928	1467.484
539.056	1484.689
539.185	1471.516
539.313	1473.369
539.441	1481.328
539.569	1480.213
539.697	1470.811
539.825	1478.287
539.953	1486.025
540.081	1471.213
540.210	1482.689
540.338	1473.631
540.466	1481.393
540.594	1494.541
540.722	1479.877
540.850	1488.598
540.978	1486.705
541.106	1491.516
541.235	1500.057
541.363	1476.049
541.491	1484.123
541.619	1486.434
541.747	1492.443
541.875	1505.172
542.003	1495.098
542.131	1509.443
542.260	1503.385
542.388	1497.082
542.516	1495.426
542.644	1500.443
542.772	1491.754
542.900	1503.230
543.028	1499.574
543.156	1512.877
543.285	1509.475
543.413	1498.230
543.541	1510.148
543.669	1510.369
543.797	1524.820
543.925	1512.500
544.053	1511.787
544.181	1518.959
544.310	1522.098
544.438	1519.123
544.566	1536.730
544.694	1518.467
544.822	1524.869
544.950	1533.393
545.078	1519.959
545.206	1525.607
545.335	1535.328
545.463	1531.795
545.591	1530.098
545.719	1529.582
545.847	1528.254
545.975	1527.238
546.103	1534.467
546.231	1537.443
546.360	1531.189
546.488	1543.238
546.616	1531.951
546.744	1557.615
546.872	1532.090
547.000	1534.738
547.128	1537.770
547.256	1541.385
547.385	1531.549
547.513	1532.410
547.641	1548.320
547.769	1559.508
547.897	1538.533
548.025	1549.648
548.153	1550.836
548.281	1555.197
548.410	1554.336
548.538	1554.025
548.666	1549.615
548.794	1545.139
548.922	1550.475
549.050	1569.000
549.178	1566.213
549.306	1565.828
549.435	1567.246
549.563	1567.016
549.691	1560.852
549.819	1575.738
549.947	1571.746
550.075	1563.320
550.203	1561.566
550.331	1573.303
550.460	1563.713
550.588	1562.525
550.716	1583.410
550.844	1567.918
550.972	1563.066
551.100	1573.262
551.228	1571.393
551.356	1572.836
551.485	1572.721
551.613	1563.975
551.741	1555.025
551.869	1555.213
551.997	1556.164
552.125	1560.516
552.253	1558.156
552.381	1543.721
552.510	1545.402
552.638	1553.639
552.766	1549.205
552.894	1548.664
553.022	1540.746
553.150	1536.811
553.278	1546.574
553.406	1548.279
553.535	1533.246
553.663	1531.975
553.791	1534.836
553.919	1535.689
554.047	1530.189
554.175	1528.131
554.303	1523.713
554.431	1524.344
554.560	1525.852
554.688	1537.361
554.816	1526.098
554.944	1530.926
555.072	1533.393
555.200	1541.689
555.328	1533.902
555.456	1542.098
555.585	1531.697
555.713	1532.631
555.841	1547.221
555.969	1535.623
556.097	1542.434
556.225	1553.705
556.353	1544.123
556.481	1541.992
556.610	1550.656
556.738	1562.385
556.866	1560.721
556.994	1556.303
557.122	1562.057
557.250	1560.590
557.378	1566.066
557.506	1571.328
557.635	1563.967
557.763	1565.607
557.891	1584.844
558.019	1573.049
558.147	1577.861
558.275	1583.951
558.403	1578.344
558.531	1574.877
558.660	1590.041
558.788	1587.295
558.916	1586.475
559.044	1580.164
559.172	1586.770
559.300	1590.902
559.428	1592.967
559.556	1579.295
559.685	1599.443
559.813	1596.787
559.941	1606.197
560.069	1603.689
560.197	1598.197
560.325	1603.779
560.453	1598.943
560.581	1618.180
560.710	1604.984
560.838	1594.754
560.966	1603.697
561.094	1612.623
561.222	1596.025
561.350	1606.861
561.478	1597.344
561.606	1597.664
561.735	1599.549
561.863	1609.705
561.991	1603.918
562.119	1593.557
562.247	1604.164
562.375	1599.377
562.503	1592.877
562.631	1603.066
562.760	1601.738
562.888	1601.779
563.016	1594.418
563.144	1599.418
563.272	1587.975
563.400	1584.762
563.528	1591.484
563.656	1603.107
563.785	1591.164
563.913	1591.066
564.041	1590.566
564.169	1585.533
564.297	1595.746
564.425	1591.279
564.553	1609.615
564.681	1598.918
564.810	1596.467
564.938	1597.877
565.066	1590.221
565.194	1611.418
565.322	1613.508
565.450	1612.705
565.578	1625.230
565.706	1595.090
565.835	1617.057
565.963	1608.369
566.091	1606.680
566.219	1627.385
566.347	1627.680
566.475	1616.557
566.603	1619.730
566.731	1624.877
566.860	1630.205
566.988	1629.516
567.116	1639.697
567.244	1623.582
567.372	1648.582
567.500	1646.189
567.628	1647.254
567.756	1647.967
567.885	1644.139
568.013	1674.131
568.141	1652.877
568.269	1659.877
568.397	1669.566
568.525	1652.975
568.653	1676.230
568.781	1670.623
568.910	1693.410
569.038	1688.975
569.166	1678.705
569.294	1685.492
569.422	1689.877
569.550	1689.713
569.678	1699.287
569.806	1709.656
569.935	1711.057
570.063	1714.549
570.191	1712.074
570.319	1718.148
570.447	1715.361
570.575	1710.951
570.703	1722.303
570.831	1725.738
570.960	1731.738
571.088	1742.303
571.216	1725.016
571.344	1734.525
571.472	1738.787
571.600	1738.516
571.728	1741.197
571.856	1734.713
571.985	1746.631
572.113	1757.762
572.241	1760.377
572.369	1766.221
572.497	1753.213
572.625	1769.508
572.753	1767.443
572.881	1770.230
573.010	1768.926
573.138	1782.910
573.266	1780.254
573.394	1772.213
573.522	1772.344
573.650	1791.525
573.778	1782.057
573.906	1773.918
574.035	1790.000
574.163	1794.221
574.291	1804.623
574.419	1798.377
574.547	1801.730
574.675	1805.500
574.803	1803.770
574.931	1790.910
575.060	1817.074
575.188	1822.893
575.316	1813.459
575.444	1803.057
575.572	1810.016
575.700	1813.303
575.828	1820.746
575.956	1824.180
576.085	1800.811
576.213	1828.959
576.341	1817.574
576.469	1825.230
576.597	1815.557
576.725	1816.484
576.853	1819.492
576.981	1812.910
577.110	1821.861
577.238	1836.336
577.366	1818.689
577.494	1811.934
577.622	1813.369
577.750	1808.328
577.878	1821.566
578.006	1834.418
578.135	1825.451
578.263	1834.959
578.391	1835.459
578.519	1834.811
578.647	1832.016
578.775	1830.230
578.903	1822.336
579.031	1852.254
579.160	1835.369
579.288	1821.451
579.416	1835.016
579.544	1854.492
579.672	1833.803
579.800	1851.205
579.928	1827.107
580.056	1831.803
580.185	1829.172
580.313	1840.057
580.441	1852.164
580.569	1838.869
580.697	1841.082
580.825	1866.746
580.953	1874.254
581.081	1873.197
581.210	1863.697
581.338	1875.590
581.466	1880.984
581.594	1885.033
581.722	1870.082
581.850	1880.705
581.978	1889.992
582.106	1885.607
582.235	1904.377
582.363	1890.779
582.491	1901.902
582.619	1903.926
582.747	1912.451
582.875	1899.369
583.003	1924.156
583.131	1933.811
583.260	1929.533
583.388	1936.279
583.516	1944.074
583.644	1945.352
583.772	1942.402
583.900	1967.492
584.028	1981.877
584.156	1960.541
584.285	1972.984
584.413	1976.533
584.541	1980.689
584.669	1988.689
584.797	2002.025
584.925	1992.246
585.053	1995.459
585.181	2006.230
585.310	2006.967
585.438	2018.754
585.566	2036.549
585.694	2045.213
585.822	2039.393
585.950	2037.221
586.078	2052.885
586.206	2045.598
586.335	2064.098
586.463	2072.713
586.591	2081.549
586.719	2070.779
586.847	2083.172
586.975	2104.344
587.103	2093.910
587.231	2087.574
587.360	2097.025
587.488	2096.246
587.616	2105.967
587.744	2126.164
587.872	2107.213
588.000	2119.123
588.128	2121.279
588.256	2125.943
588.385	2119.934
588.513	2112.336
588.641	2130.254
588.769	2157.311
588.897	2129.066
589.025	2132.287
589.153	2127.967
589.281	2138.295
589.410	2155.795
589.538	2148.057
589.666	2156.934
589.794	2157.459
589.922	2158.115
590.050	2168.025
590.178	2150.295
590.306	2152.828
590.435	2166.361
590.563	2157.139
590.691	2166.139
590.819	2161.352
590.947	2188.730
591.075	2165.410
591.203	2177.451
591.331	2174.902
591.460	2175.230
591.588	2187.943
591.716	2181.336
591.844	2187.418
591.972	2203.279
592.100	2186.139
592.228	2187.057
592.356	2190.139
592.485	2186.525
592.613	2182.787
592.741	2216.705
592.869	2206.680
592.997	2211.287
593.125	2219.713
593.253	2227.426
593.381	2235.721
593.510	2237.738
593.638	2240.992
593.766	2229.508
593.894	2232.648
594.022	2244.893
594.150	2260.500
594.278	2271.475
594.406	2257.516
594.535	2259.180
594.663	2273.672
594.791	2243.279
594.919	2269.508
595.047	2278.762
595.175	2298.172
595.303	2280.328
595.431	2289.770
595.560	2298.500
595.688	2297.008
595.816	2294.410
595.944	2307.549
596.072	2315.885
596.200	2314.533
596.328	2321.025
596.456	2312.516
596.585	2320.164
596.713	2328.115
596.841	2338.943
596.969	2342.967
597.097	2340.295
597.225	2359.426
597.353	2370.287
597.481	2354.803
597.610	2356.598
597.738	2375.664
597.866	2371.648
597.994	2379.779
598.122	2401.664
598.250	2398.926
598.378	2374.992
598.506	2387.738
598.635	2384.467
598.763	2406.549
598.891	2412.057
599.019	2419.131
599.147	2406.541
599.275	2399.672
599.403	2425.582
599.531	2426.451
599.660	2443.238
599.788	2435.697
599.916	2434.877
600.044	2462.246
600.172	2455.320
600.300	2452.770
600.428	2441.254
600.556	2451.828
600.685	2486.803
600.813	2468.484
600.941	2487.689
601.069	2465.631
601.197	2504.459
601.325	2487.672
601.453	2483.131
601.581	2494.008
601.710	2505.402
601.838	2530.139
601.966	2541.377
602.094	2530.336
602.222	2526.869
602.350	2508.672
602.478	2517.361
602.606	2549.926
602.735	2520.623
602.863	2566.648
602.991	2563.893
603.119	2559.869
603.247	2558.230
603.375	2571.721
603.503	2575.803
603.631	2595.697
603.760	2593.738
603.888	2602.926
604.016	2600.090
604.144	2598.189
604.272	2615.467
604.400	2634.877
604.528	2612.418
604.656	2640.410
604.785	2639.557
604.913	2661.074
605.041	2624.189
605.169	2673.787
605.297	2644.410
605.425	2657.320
605.553	2677.951
605.681	2653.008
605.810	2678.352
605.938	2678.369
606.066	2658.967
606.194	2692.525
606.322	2673.926
606.450	2700.803
606.578	2674.746
606.706	2701.434
606.835	2716.664
606.963	2722.156
607.091	2733.762
607.219	2711.459
607.347	2700.156
607.475	2727.025
607.603	2729.377
607.731	2693.631
607.860	2716.410
607.988	2724.221
608.116	2746.467
608.244	2722.803
608.372	2739.795
608.500	2729.205
608.628	2706.910
608.756	2737.656
608.885	2768.180
609.013	2726.254
609.141	2704.287
609.269	2719.705
609.397	2720.270
609.525	2740.803
609.653	2734.844
609.781	2722.361
609.910	2735.090
610.038	2777.533
610.166	2738.369
610.294	2732.254
610.422	2746.205
610.550	2732.426
610.678	2730.779
610.806	2747.377
610.935	2726.131
611.063	2728.189
611.191	2742.525
611.319	2745.074
611.447	2726.762
611.575	2728.123
611.703	2720.574
611.831	2737.385
611.960	2726.689
612.088	2738.934
612.216	2728.443
612.344	2730.787
612.472	2739.033
612.600	2729.000
612.728	2725.885
612.856	2706.893
612.985	2721.443
613.113	2737.131
613.241	2756.705
613.369	2725.410
613.497	2736.443
613.625	2735.148
613.753	2738.689
613.881	2725.270
614.010	2705.836
614.138	2735.566
614.266	2742.066
614.394	2749.984
614.522	2741.230
614.650	2735.311
614.778	2732.664
614.906	2738.516
615.035	2750.598
615.163	2726.213
615.291	2753.426
615.419	2726.992
615.547	2725.598
615.675	2745.795
615.803	2778.008
615.931	2764.934
616.060	2756.336
616.188	2758.795
616.316	2764.262
616.444	2744.582
616.572	2751.410
616.700	2782.402
616.828	2765.730
616.956	2787.107
617.085	2781.721
617.213	2759.951
617.341	2766.984
617.469	2846.492
617.597	2767.885
617.725	2763.377
617.853	2765.393
617.981	2787.820
618.110	2817.598
618.238	2806.590
618.366	2795.098
618.494	2795.541
618.622	2796.492
618.750	2846.385
618.878	2826.492
619.006	2830.189
619.135	2854.852
619.263	2823.902
619.391	2830.746
619.519	2830.598
619.647	2866.393
619.775	2847.262
619.903	2851.697
620.031	2821.607
620.160	2844.730
620.288	2858.238
620.416	2871.918
620.544	2870.566
620.672	2872.180
620.800	2875.049
620.928	2875.221
621.056	2927.197
621.185	2880.975
621.313	2865.836
621.441	2892.861
621.569	2888.156
621.697	2903.082
621.825	2909.844
621.953	2881.115
622.081	2919.623
622.210	2890.205
622.338	2914.451
622.466	2917.164
622.594	2919.508
622.722	2904.508
622.850	2934.246
622.978	2965.295
623.106	2947.443
623.235	2940.426
623.363	2946.418
623.491	2933.828
623.619	2966.893
623.747	2936.139
623.875	2973.148
624.003	2911.189
624.131	2956.844
624.260	2959.762
624.388	2934.443
624.516	2949.475
624.644	2938.074
624.772	2942.508
624.900	2929.443
625.028	2931.041
625.156	2926.697
625.285	2963.115
625.413	2958.484
625.541	2948.451
625.669	2960.541
625.797	2957.697
625.925	2936.902
626.053	2933.418
626.181	2917.303
626.310	2989.820
626.438	2925.820
626.566	2934.934
626.694	2930.795
626.822	2928.139
626.950	2943.893
627.078	2923.311
627.206	2929.828
627.335	2941.164
627.463	2922.828
627.591	2937.311
627.719	2956.820
627.847	2929.475
627.975	2939.205
628.103	2939.656
628.231	2937.803
628.360	2924.402
628.488	2911.459
628.616	2920.238
628.744	2910.303
628.872	2925.148
629.000	2924.287
629.128	2916.730
629.256	2894.828
629.385	2884.984
629.513	2881.508
629.641	2911.426
629.769	2933.861
629.897	2925.598
630.025	2902.270
630.153	2937.910
630.281	2898.213
630.410	2904.541
630.538	2897.131
630.666	2901.320
630.794	2889.385
630.922	2909.525
631.050	2888.041
631.178	2899.943
631.306	2881.082
631.435	2886.041
631.563	2901.443
631.691	2909.139
631.819	2931.721
631.947	2883.746
632.075	2860.467
632.203	2895.402
632.331	2859.967
632.460	2866.090
632.588	2869.049
632.716	2858.738
632.844	2896.402
632.972	2838.656
633.100	2836.672
633.228	2863.885
633.356	2848.131
633.485	2869.016
633.613	2869.221
633.741	2844.738
633.869	2833.975
633.997	2837.893
634.125	2886.385
634.253	2833.566
634.381	2835.672
634.510	2845.623
634.638	2820.705
634.766	2880.164
634.894	2822.230
635.022	2819.738
635.150	2806.000
635.278	2826.180
635.406	2808.918
635.535	2801.762
635.663	2814.180
635.791	2772.049
635.919	2799.861
636.047	2800.246
636.175	2784.508
636.303	2785.000
636.431	2793.549
636.560	2791.689
636.688	2768.098
636.816	2784.803
636.944	2760.377
637.072	2789.246
637.200	2766.238
637.328	2764.852
637.456	2759.631
637.585	2754.541
637.713	2770.279
637.841	2738.082
637.969	2755.877
638.097	2737.320
638.225	2749.303
638.353	2738.295
638.481	2737.648
638.610	2758.877
638.738	2747.213
638.866	2724.246
638.994	2742.525
639.122	2724.057
639.250	2711.189
639.378	2762.074
639.506	2727.090
639.635	2741.041
639.763	2704.664
639.891	2726.107
640.019	2742.156
640.147	2749.623
640.275	2702.295
640.403	2687.779
640.531	2734.918
640.660	2711.770
640.788	2758.311
640.916	2707.557
641.044	2727.721
641.172	2709.549
641.300	2710.131
641.428	2714.508
641.556	2718.279
641.685	2699.402
641.813	2683.574
641.941	2704.549
642.069	2708.492
642.197	2728.008
642.325	2703.664
642.453	2687.492
642.581	2738.705
642.710	2682.762
642.838	2707.566
642.966	2683.230
643.094	2692.926
643.222	2669.033
643.350	2685.590
643.478	2712.902
643.606	2691.426
643.735	2647.295
643.863	2676.918
643.991	2682.295
644.119	2673.869
644.247	2676.139
644.375	2655.623
644.503	2674.434
644.631	2684.516
644.760	2672.762
644.888	2686.557
645.016	2670.459
645.144	2660.992
645.272	2650.287
645.400	2678.836
645.528	2674.484
645.656	2639.352
645.785	2657.590
645.913	2684.770
646.041	2662.631
646.169	2666.664
646.297	2640.730
646.425	2648.623
646.553	2628.574
646.681	2618.238
646.810	2627.303
646.938	2630.025
647.066	2608.156
647.194	2641.779
647.322	2608.164
647.450	2591.361
647.578	2607.443
647.706	2589.000
647.835	2598.164
647.963	2611.820
648.091	2578.787
648.219	2600.287
648.347	2589.607
648.475	2585.369
648.603	2574.484
648.731	2565.951
648.860	2547.238
648.988	2546.689
649.116	2541.557
649.244	2522.377
649.372	2527.869
649.500	2536.492
649.628	2542.910
649.756	2520.123
649.885	2496.566
650.013	2485.352
650.141	2497.533
650.269	2465.557
650.397	2465.025
650.525	2461.721
650.653	2468.156
650.781	2463.123
650.910	2447.246
651.038	2417.680
651.166	2432.680
651.294	2415.656
651.422	2404.877
651.550	2399.893
651.678	2406.615
651.806	2381.000
651.935	2389.369
652.063	2370.877
652.191	2367.508
652.319	2364.943
652.447	2368.549
652.575	2351.385
652.703	2352.041
652.831	2336.770
652.960	2325.074
653.088	2322.910
653.216	2302.033
653.344	2313.328
653.472	2310.893
653.600	2293.549
653.728	2295.328
653.856	2293.713
653.985	2290.713
654.113	2268.762
654.241	2289.287
654.369	2269.623
654.497	2281.680
654.625	2266.459
654.753	2263.213
654.881	2260.574
655.010	2255.623
655.138	2246.992
655.266	2243.877
655.394	2214.270
655.522	2235.746
655.650	2209.582
655.778	2231.369
655.906	2219.615
656.035	2194.049
656.163	2196.582
656.291	2203.115
656.419	2194.025
656.547	2194.549
656.675	2170.393
