90-70-90_at_679.99nm_cut_at_1276.00Y_01.dat
24.01.2024
13:25:09
cut middle at Y: 1276.00
top cursor: 1337 down cursor: 1215 mean of: 122 lines , 2560 datapoints
wavelength(nm)	intensity[arb. units]
515.994	530.000
516.122	501.672
516.250	495.672
516.378	486.631
516.506	489.459
516.635	487.607
516.763	492.984
516.891	490.746
517.019	501.648
517.147	493.484
517.275	496.877
517.403	492.779
517.531	491.746
517.660	488.492
517.788	491.820
517.916	494.434
518.044	489.705
518.172	492.008
518.300	496.951
518.428	489.967
518.556	492.131
518.685	495.279
518.813	495.057
518.941	500.697
519.069	498.066
519.197	496.320
519.325	504.246
519.453	499.721
519.581	507.098
519.710	496.943
519.838	500.607
519.966	499.811
520.094	494.697
520.222	502.369
520.350	502.041
520.478	506.352
520.606	507.697
520.735	504.943
520.863	504.730
520.991	515.475
521.119	504.254
521.247	508.885
521.375	510.844
521.503	515.213
521.631	510.893
521.760	516.361
521.888	515.025
522.016	519.992
522.144	513.975
522.272	524.492
522.400	522.090
522.528	522.336
522.656	517.664
522.785	520.008
522.913	523.008
523.041	522.762
523.169	517.525
523.297	529.230
523.425	527.123
523.553	526.492
523.681	522.344
523.810	524.139
523.938	535.172
524.066	525.303
524.194	528.008
524.322	527.303
524.450	528.262
524.578	528.484
524.706	528.746
524.835	522.262
524.963	528.689
525.091	525.410
525.219	524.197
525.347	522.885
525.475	523.697
525.603	530.598
525.731	517.082
525.860	527.803
525.988	522.533
526.116	526.025
526.244	523.959
526.372	522.205
526.500	525.697
526.628	534.631
526.756	525.672
526.885	527.074
527.013	519.754
527.141	528.066
527.269	528.000
527.397	530.172
527.525	530.689
527.653	526.221
527.781	522.295
527.910	533.705
528.038	535.131
528.166	527.328
528.294	526.902
528.422	530.828
528.550	532.279
528.678	533.795
528.806	535.762
528.935	532.820
529.063	532.221
529.191	530.852
529.319	531.615
529.447	535.910
529.575	536.148
529.703	538.402
529.831	536.344
529.960	540.533
530.088	541.680
530.216	540.131
530.344	537.959
530.472	544.951
530.600	546.648
530.728	543.959
530.856	542.992
530.985	541.279
531.113	543.254
531.241	548.803
531.369	547.582
531.497	542.525
531.625	546.533
531.753	549.098
531.881	543.090
532.010	539.820
532.138	546.779
532.266	540.918
532.394	542.377
532.522	543.582
532.650	546.205
532.778	550.787
532.906	543.484
533.035	547.197
533.163	541.385
533.291	541.443
533.419	539.820
533.547	540.680
533.675	543.131
533.803	539.303
533.931	541.893
534.060	544.828
534.188	543.295
534.316	541.721
534.444	539.967
534.572	539.189
534.700	539.230
534.828	537.656
534.956	541.311
535.085	544.803
535.213	534.705
535.341	542.820
535.469	542.844
535.597	545.213
535.725	546.926
535.853	548.180
535.981	544.885
536.110	545.689
536.238	553.156
536.366	550.672
536.494	547.459
536.622	552.598
536.750	548.385
536.878	556.557
537.006	557.869
537.135	553.918
537.263	557.172
537.391	559.934
537.519	560.795
537.647	563.082
537.775	561.016
537.903	560.721
538.031	561.803
538.160	568.680
538.288	562.762
538.416	566.680
538.544	563.295
538.672	564.811
538.800	567.680
538.928	568.738
539.056	575.057
539.185	569.623
539.313	565.844
539.441	572.967
539.569	572.320
539.697	572.246
539.825	573.738
539.953	573.803
540.081	568.008
540.210	571.664
540.338	576.418
540.466	578.475
540.594	575.803
540.722	575.574
540.850	572.943
540.978	573.721
541.106	577.295
541.235	574.746
541.363	573.033
541.491	574.295
541.619	574.066
541.747	573.148
541.875	572.656
542.003	570.205
542.131	570.680
542.260	574.762
542.388	570.795
542.516	572.197
542.644	579.082
542.772	580.680
542.900	572.844
543.028	575.361
543.156	574.262
543.285	575.689
543.413	573.598
543.541	580.934
543.669	573.270
543.797	573.631
543.925	578.721
544.053	573.385
544.181	574.467
544.310	578.451
544.438	574.320
544.566	571.615
544.694	579.303
544.822	578.680
544.950	580.697
545.078	575.516
545.206	579.779
545.335	584.492
545.463	573.943
545.591	582.525
545.719	577.877
545.847	581.762
545.975	577.443
546.103	576.008
546.231	580.787
546.360	579.975
546.488	586.107
546.616	584.311
546.744	583.852
546.872	582.893
547.000	584.033
547.128	587.795
547.256	580.303
547.385	586.098
547.513	583.279
547.641	592.484
547.769	589.721
547.897	586.672
548.025	593.648
548.153	592.352
548.281	588.533
548.410	587.320
548.538	586.984
548.666	588.443
548.794	583.803
548.922	589.238
549.050	595.803
549.178	586.189
549.306	590.410
549.435	596.008
549.563	588.943
549.691	589.664
549.819	593.016
549.947	595.328
550.075	593.156
550.203	589.107
550.331	586.090
550.460	589.721
550.588	597.639
550.716	599.066
550.844	590.975
550.972	592.025
551.100	584.451
551.228	589.861
551.356	589.492
551.485	591.426
551.613	590.033
551.741	585.303
551.869	583.492
551.997	583.303
552.125	583.836
552.253	580.426
552.381	577.631
552.510	576.795
552.638	576.631
552.766	577.066
552.894	573.877
553.022	578.984
553.150	575.795
553.278	577.984
553.406	574.156
553.535	571.475
553.663	569.705
553.791	572.992
553.919	570.648
554.047	571.426
554.175	571.377
554.303	570.754
554.431	564.287
554.560	572.082
554.688	573.672
554.816	567.959
554.944	568.270
555.072	563.877
555.200	569.549
555.328	566.279
555.456	575.623
555.585	573.221
555.713	567.434
555.841	576.328
555.969	576.721
556.097	575.451
556.225	572.139
556.353	572.008
556.481	566.836
556.610	575.230
556.738	579.049
556.866	577.811
556.994	572.189
557.122	576.475
557.250	582.041
557.378	583.820
557.506	578.730
557.635	577.361
557.763	578.795
557.891	585.459
558.019	578.311
558.147	584.607
558.275	581.918
558.403	590.484
558.531	585.189
558.660	583.697
558.788	583.639
558.916	588.992
559.044	582.943
559.172	585.910
559.300	586.533
559.428	588.451
559.556	582.148
559.685	586.402
559.813	583.557
559.941	594.828
560.069	591.230
560.197	590.500
560.325	592.820
560.453	587.926
560.581	595.803
560.710	585.656
560.838	585.705
560.966	592.008
561.094	593.369
561.222	591.270
561.350	588.475
561.478	590.180
561.606	587.820
561.735	581.574
561.863	586.131
561.991	590.459
562.119	585.295
562.247	587.131
562.375	583.820
562.503	587.221
562.631	590.525
562.760	583.254
562.888	585.525
563.016	584.893
563.144	587.721
563.272	581.467
563.400	573.352
563.528	584.844
563.656	582.639
563.785	581.861
563.913	585.828
564.041	580.500
564.169	582.270
564.297	576.541
564.425	577.541
564.553	582.262
564.681	582.566
564.810	583.197
564.938	583.008
565.066	578.492
565.194	583.008
565.322	582.115
565.450	577.115
565.578	582.057
565.706	580.902
565.835	584.049
565.963	578.377
566.091	577.607
566.219	583.697
566.347	577.803
566.475	581.287
566.603	583.811
566.731	583.697
566.860	582.951
566.988	587.926
567.116	590.664
567.244	587.984
567.372	588.262
567.500	590.803
567.628	593.492
567.756	587.861
567.885	590.000
568.013	590.984
568.141	598.000
568.269	595.361
568.397	594.344
568.525	594.303
568.653	597.238
568.781	598.582
568.910	607.213
569.038	602.672
569.166	593.123
569.294	599.713
569.422	601.557
569.550	599.492
569.678	608.213
569.806	606.172
569.935	600.754
570.063	610.164
570.191	608.434
570.319	612.066
570.447	610.664
570.575	612.016
570.703	608.352
570.831	617.844
570.960	612.172
571.088	618.697
571.216	610.984
571.344	617.369
571.472	621.131
571.600	621.943
571.728	622.115
571.856	617.238
571.985	614.672
572.113	626.377
572.241	615.123
572.369	625.811
572.497	622.197
572.625	624.926
572.753	621.984
572.881	622.303
573.010	624.361
573.138	629.811
573.266	621.730
573.394	626.344
573.522	627.270
573.650	625.426
573.778	628.189
573.906	622.836
574.035	624.484
574.163	625.779
574.291	624.311
574.419	625.557
574.547	627.639
574.675	630.598
574.803	626.648
574.931	622.393
575.060	633.467
575.188	626.484
575.316	632.434
575.444	631.418
575.572	631.549
575.700	624.238
575.828	635.311
575.956	630.918
576.085	624.238
576.213	627.352
576.341	629.369
576.469	624.361
576.597	624.820
576.725	627.590
576.853	621.877
576.981	625.721
577.110	620.598
577.238	624.057
577.366	621.803
577.494	620.730
577.622	619.451
577.750	626.844
577.878	617.066
578.006	625.820
578.135	625.811
578.263	615.820
578.391	625.852
578.519	619.590
578.647	625.328
578.775	621.410
578.903	615.852
579.031	622.254
579.160	617.295
579.288	615.656
579.416	616.754
579.544	622.574
579.672	620.270
579.800	620.107
579.928	614.566
580.056	615.172
580.185	621.189
580.313	619.074
580.441	611.516
580.569	613.098
580.697	615.811
580.825	615.164
580.953	614.057
581.081	621.393
581.210	622.926
581.338	627.738
581.466	621.967
581.594	622.393
581.722	623.787
581.850	619.943
581.978	620.926
582.106	623.533
582.235	627.098
582.363	621.270
582.491	623.107
582.619	623.361
582.747	633.025
582.875	630.164
583.003	630.295
583.131	631.311
583.260	630.287
583.388	631.959
583.516	632.492
583.644	630.426
583.772	640.139
583.900	642.156
584.028	638.123
584.156	637.197
584.285	642.893
584.413	640.779
584.541	648.205
584.669	641.943
584.797	649.615
584.925	647.385
585.053	649.566
585.181	654.344
585.310	653.926
585.438	649.008
585.566	651.295
585.694	662.836
585.822	666.328
585.950	658.361
586.078	657.016
586.206	657.295
586.335	660.270
586.463	662.664
586.591	668.369
586.719	662.672
586.847	662.738
586.975	669.918
587.103	669.311
587.231	663.770
587.360	674.689
587.488	675.000
587.616	673.943
587.744	677.623
587.872	668.090
588.000	669.508
588.128	676.426
588.256	670.566
588.385	667.418
588.513	669.877
588.641	681.934
588.769	678.451
588.897	679.787
589.025	672.975
589.153	675.902
589.281	668.508
589.410	673.459
589.538	679.836
589.666	676.410
589.794	681.582
589.922	682.713
590.050	679.607
590.178	675.500
590.306	673.508
590.435	680.434
590.563	671.311
590.691	677.910
590.819	679.730
590.947	682.525
591.075	682.156
591.203	678.459
591.331	684.213
591.460	681.869
591.588	681.344
591.716	682.049
591.844	680.713
591.972	684.607
592.100	682.139
592.228	683.975
592.356	687.180
592.485	673.803
592.613	681.270
592.741	682.508
592.869	687.213
592.997	688.639
593.125	694.000
593.253	689.369
593.381	684.033
593.510	684.656
593.638	684.844
593.766	689.869
593.894	683.074
594.022	687.639
594.150	690.148
594.278	694.951
594.406	689.025
594.535	695.869
594.663	704.041
594.791	695.361
594.919	695.951
595.047	696.779
595.175	696.828
595.303	701.016
595.431	695.959
595.560	704.139
595.688	701.697
595.816	691.803
595.944	703.492
596.072	703.025
596.200	702.992
596.328	706.467
596.456	705.770
596.585	706.123
596.713	710.123
596.841	702.730
596.969	702.967
597.097	711.738
597.225	717.238
597.353	717.828
597.481	714.607
597.610	709.492
597.738	721.893
597.866	714.918
597.994	717.213
598.122	716.172
598.250	718.721
598.378	717.697
598.506	719.131
598.635	716.385
598.763	720.197
598.891	719.713
599.019	722.811
599.147	724.697
599.275	721.844
599.403	728.787
599.531	727.721
599.660	725.443
599.788	732.434
599.916	728.967
600.044	729.426
600.172	733.959
600.300	732.672
600.428	728.352
600.556	729.639
600.685	732.295
600.813	732.525
600.941	739.057
601.069	734.156
601.197	743.426
601.325	747.344
601.453	739.607
601.581	747.967
601.710	745.295
601.838	754.262
601.966	742.287
602.094	750.074
602.222	745.730
602.350	744.000
602.478	753.238
602.606	757.270
602.735	750.123
602.863	761.967
602.991	758.828
603.119	758.270
603.247	761.943
603.375	753.738
603.503	754.738
603.631	768.803
603.760	769.344
603.888	761.090
604.016	765.615
604.144	768.221
604.272	769.975
604.400	777.172
604.528	770.926
604.656	780.721
604.785	775.746
604.913	786.041
605.041	779.967
605.169	783.262
605.297	783.402
605.425	786.295
605.553	784.041
605.681	782.918
605.810	787.139
605.938	789.574
606.066	793.172
606.194	787.549
606.322	789.434
606.450	793.492
606.578	789.803
606.706	799.090
606.835	795.377
606.963	802.148
607.091	801.861
607.219	800.705
607.347	795.459
607.475	796.557
607.603	803.369
607.731	798.836
607.860	796.549
607.988	794.975
608.116	803.648
608.244	799.418
608.372	800.713
608.500	804.721
608.628	805.279
608.756	793.795
608.885	803.451
609.013	795.943
609.141	798.467
609.269	798.041
609.397	798.533
609.525	802.410
609.653	801.615
609.781	799.016
609.910	796.107
610.038	803.475
610.166	806.377
610.294	797.484
610.422	793.287
610.550	794.910
610.678	797.639
610.806	802.869
610.935	793.541
611.063	796.270
611.191	801.689
611.319	794.131
611.447	788.721
611.575	799.344
611.703	795.254
611.831	796.393
611.960	801.926
612.088	790.877
612.216	796.254
612.344	793.631
612.472	795.123
612.600	793.549
612.728	792.631
612.856	798.541
612.985	797.910
613.113	799.410
613.241	798.385
613.369	795.631
613.497	799.328
613.625	798.607
613.753	795.279
613.881	798.369
614.010	797.016
614.138	791.631
614.266	790.705
614.394	799.672
614.522	795.189
614.650	799.574
614.778	794.902
614.906	802.287
615.035	798.459
615.163	797.926
615.291	795.434
615.419	794.754
615.547	789.189
615.675	803.770
615.803	798.738
615.931	805.967
616.060	803.664
616.188	806.590
616.316	794.213
616.444	798.459
616.572	802.533
616.700	802.041
616.828	806.320
616.956	808.639
617.085	812.787
617.213	815.197
617.341	801.426
617.469	814.361
617.597	810.656
617.725	811.910
617.853	808.672
617.981	812.074
618.110	816.295
618.238	812.697
618.366	816.156
618.494	808.811
618.622	819.221
618.750	821.557
618.878	817.025
619.006	819.943
619.135	827.295
619.263	822.795
619.391	830.705
619.519	824.426
619.647	828.352
619.775	834.639
619.903	834.270
620.031	830.352
620.160	836.057
620.288	828.139
620.416	846.918
620.544	838.713
620.672	844.049
620.800	836.180
620.928	842.721
621.056	845.508
621.185	841.607
621.313	842.992
621.441	842.869
621.569	851.123
621.697	851.738
621.825	856.516
621.953	847.500
622.081	863.934
622.210	842.033
622.338	853.156
622.466	858.918
622.594	864.754
622.722	854.098
622.850	872.984
622.978	861.820
623.106	858.770
623.235	868.770
623.363	865.008
623.491	867.000
623.619	868.205
623.747	865.566
623.875	873.402
624.003	867.508
624.131	862.098
624.260	865.566
624.388	871.730
624.516	871.270
624.644	870.664
624.772	874.951
624.900	871.918
625.028	864.779
625.156	878.295
625.285	867.434
625.413	876.852
625.541	869.328
625.669	863.238
625.797	876.918
625.925	876.041
626.053	873.115
626.181	872.057
626.310	878.852
626.438	868.984
626.566	875.492
626.694	875.377
626.822	874.574
626.950	881.689
627.078	867.369
627.206	869.418
627.335	884.139
627.463	874.836
627.591	873.697
627.719	874.631
627.847	877.639
627.975	876.951
628.103	876.639
628.231	880.631
628.360	870.295
628.488	873.828
628.616	872.623
628.744	869.525
628.872	869.074
629.000	871.566
629.128	877.516
629.256	873.943
629.385	866.410
629.513	873.123
629.641	877.492
629.769	872.156
629.897	877.361
630.025	862.713
630.153	876.861
630.281	875.631
630.410	864.320
630.538	878.221
630.666	879.107
630.794	877.156
630.922	873.082
631.050	865.410
631.178	872.148
631.306	864.967
631.435	866.516
631.563	869.525
631.691	871.074
631.819	873.984
631.947	876.418
632.075	869.975
632.203	872.869
632.331	867.434
632.460	861.049
632.588	866.828
632.716	870.303
632.844	866.189
632.972	872.213
633.100	875.410
633.228	876.475
633.356	864.779
633.485	874.041
633.613	872.508
633.741	873.582
633.869	870.598
633.997	869.607
634.125	867.779
634.253	867.049
634.381	861.943
634.510	864.090
634.638	866.705
634.766	870.574
634.894	862.115
635.022	861.041
635.150	858.975
635.278	865.246
635.406	864.434
635.535	870.131
635.663	868.738
635.791	852.008
635.919	863.205
636.047	862.590
636.175	856.131
636.303	859.115
636.431	864.189
636.560	860.033
636.688	859.172
636.816	854.082
636.944	852.492
637.072	857.779
637.200	856.025
637.328	853.623
637.456	858.918
637.585	852.680
637.713	858.672
637.841	858.820
637.969	843.016
638.097	854.975
638.225	861.148
638.353	855.459
638.481	859.066
638.610	851.877
638.738	861.689
638.866	857.492
638.994	853.549
639.122	856.525
639.250	859.041
639.378	857.852
639.506	850.221
639.635	858.434
639.763	844.508
639.891	859.967
640.019	852.533
640.147	853.639
640.275	848.418
640.403	847.066
640.531	857.270
640.660	851.082
640.788	862.598
640.916	850.566
641.044	858.270
641.172	861.098
641.300	865.410
641.428	854.385
641.556	857.746
641.685	857.803
641.813	857.680
641.941	862.410
642.069	859.770
642.197	861.557
642.325	852.910
642.453	858.738
642.581	867.975
642.710	854.730
642.838	866.418
642.966	859.451
643.094	858.689
643.222	853.967
643.350	864.934
643.478	862.328
643.606	863.525
643.735	858.508
643.863	854.393
643.991	869.721
644.119	862.475
644.247	863.893
644.375	858.795
644.503	865.500
644.631	864.164
644.760	869.230
644.888	863.238
645.016	866.172
645.144	871.852
645.272	856.443
645.400	858.369
645.528	869.057
645.656	857.795
645.785	864.508
645.913	875.148
646.041	876.713
646.169	851.221
646.297	858.566
646.425	866.984
646.553	854.598
646.681	859.246
646.810	862.926
646.938	860.172
647.066	846.295
647.194	864.836
647.322	851.303
647.450	850.434
647.578	860.057
647.706	854.943
647.835	860.516
647.963	856.713
648.091	854.205
648.219	854.557
648.347	852.115
648.475	853.648
648.603	855.664
648.731	849.943
648.860	850.303
648.988	851.598
649.116	851.426
649.244	845.164
649.372	836.131
649.500	840.303
649.628	844.123
649.756	841.525
649.885	832.705
650.013	839.361
650.141	826.057
650.269	823.574
650.397	827.410
650.525	828.344
650.653	836.967
650.781	822.311
650.910	823.328
651.038	816.910
651.166	818.975
651.294	820.000
651.422	813.697
651.550	809.754
651.678	813.943
651.806	809.549
651.935	807.730
652.063	806.508
652.191	802.631
652.319	808.484
652.447	804.352
652.575	800.434
652.703	798.123
652.831	799.344
652.960	796.164
653.088	783.123
653.216	784.418
653.344	788.951
653.472	789.451
653.600	792.902
653.728	796.344
653.856	787.279
653.985	788.385
654.113	781.648
654.241	788.008
654.369	780.139
654.497	789.828
654.625	779.295
654.753	783.418
654.881	779.287
655.010	780.541
655.138	772.492
655.266	772.656
655.394	769.557
655.522	777.664
655.650	768.115
655.778	773.172
655.906	773.746
656.035	768.549
656.163	768.205
656.291	767.836
656.419	770.631
656.547	768.762
656.675	766.172
656.803	765.746
656.931	765.467
657.060	768.803
657.188	763.664
657.316	762.721
657.444	765.074
657.572	761.074
657.700	760.918
657.828	755.016
657.956	762.057
658.085	763.689
658.213	756.172
658.341	754.139
658.469	759.041
658.597	758.648
658.725	755.459
658.853	751.959
658.981	752.869
659.110	753.746
659.238	757.385
659.366	754.295
659.494	746.090
659.622	746.574
659.750	749.689
659.878	747.705
660.006	751.787
660.135	752.041
660.263	745.426
660.391	748.738
660.519	751.910
660.647	741.705
660.775	747.738
660.903	737.828
661.031	742.107
661.160	744.779
661.288	744.287
661.416	740.467
661.544	735.902
661.672	732.107
661.800	734.475
661.928	738.148
662.056	739.221
662.185	736.705
662.313	729.574
662.441	736.762
662.569	726.049
662.697	729.631
662.825	732.811
662.953	732.369
663.081	730.623
663.210	737.418
663.338	741.123
663.466	728.672
663.594	722.377
663.722	718.762
663.850	725.418
663.978	721.844
664.106	733.492
664.235	722.623
664.363	725.000
664.491	719.246
664.619	719.566
664.747	720.926
664.875	723.746
665.003	715.574
