90-80-unpol_at_679.99nm_cut_at_1253.00Y_01.dat
24.01.2024
13:26:10
cut middle at Y: 1253.00
top cursor: 1313 down cursor: 1193 mean of: 120 lines , 2560 datapoints
wavelength(nm)	intensity[arb. units]
515.994	2600.300
516.122	2445.617
516.250	2423.025
516.378	2393.067
516.506	2395.267
516.635	2397.183
516.763	2410.383
516.891	2425.900
517.019	2419.192
517.147	2413.275
517.275	2420.850
517.403	2421.250
517.531	2416.433
517.660	2411.633
517.788	2414.242
517.916	2436.475
518.044	2426.517
518.172	2432.150
518.300	2443.933
518.428	2431.550
518.556	2429.233
518.685	2434.808
518.813	2433.500
518.941	2449.925
519.069	2451.325
519.197	2451.708
519.325	2455.450
519.453	2461.008
519.581	2459.950
519.710	2461.267
519.838	2466.608
519.966	2471.900
520.094	2473.858
520.222	2469.775
520.350	2480.975
520.478	2497.050
520.606	2498.983
520.735	2498.142
520.863	2508.250
520.991	2520.225
521.119	2511.583
521.247	2525.483
521.375	2532.058
521.503	2547.175
521.631	2559.650
521.760	2550.608
521.888	2559.192
522.016	2559.233
522.144	2559.142
522.272	2565.267
522.400	2575.067
522.528	2596.842
522.656	2587.725
522.785	2595.175
522.913	2600.125
523.041	2606.108
523.169	2590.850
523.297	2607.567
523.425	2607.108
523.553	2605.217
523.681	2592.683
523.810	2614.350
523.938	2619.467
524.066	2611.442
524.194	2607.267
524.322	2610.233
524.450	2623.417
524.578	2606.642
524.706	2610.242
524.835	2605.208
524.963	2622.158
525.091	2614.267
525.219	2629.075
525.347	2622.125
525.475	2613.567
525.603	2626.733
525.731	2625.775
525.860	2621.967
525.988	2608.908
526.116	2618.358
526.244	2630.317
526.372	2595.200
526.500	2625.150
526.628	2627.275
526.756	2626.733
526.885	2633.525
527.013	2624.025
527.141	2634.700
527.269	2622.717
527.397	2632.175
527.525	2633.867
527.653	2620.067
527.781	2641.575
527.910	2638.925
528.038	2636.258
528.166	2668.208
528.294	2643.242
528.422	2665.067
528.550	2645.600
528.678	2657.633
528.806	2667.125
528.935	2673.483
529.063	2663.200
529.191	2655.442
529.319	2683.233
529.447	2674.942
529.575	2674.725
529.703	2670.408
529.831	2681.550
529.960	2683.350
530.088	2678.183
530.216	2674.458
530.344	2683.000
530.472	2690.800
530.600	2681.883
530.728	2695.917
530.856	2691.225
530.985	2695.075
531.113	2674.083
531.241	2673.858
531.369	2687.467
531.497	2679.342
531.625	2689.458
531.753	2679.483
531.881	2690.600
532.010	2689.525
532.138	2682.017
532.266	2673.025
532.394	2676.192
532.522	2666.333
532.650	2674.567
532.778	2673.750
532.906	2668.717
533.035	2661.750
533.163	2661.233
533.291	2660.767
533.419	2653.750
533.547	2648.100
533.675	2648.175
533.803	2659.375
533.931	2635.350
534.060	2658.808
534.188	2638.533
534.316	2640.300
534.444	2638.975
534.572	2632.875
534.700	2639.392
534.828	2653.900
534.956	2647.217
535.085	2654.900
535.213	2680.792
535.341	2669.417
535.469	2664.217
535.597	2677.350
535.725	2679.250
535.853	2686.142
535.981	2678.742
536.110	2689.150
536.238	2703.692
536.366	2706.575
536.494	2704.642
536.622	2718.042
536.750	2719.933
536.878	2721.733
537.006	2732.000
537.135	2742.642
537.263	2739.750
537.391	2758.950
537.519	2743.208
537.647	2751.075
537.775	2756.592
537.903	2768.725
538.031	2771.558
538.160	2788.133
538.288	2786.158
538.416	2785.708
538.544	2774.875
538.672	2794.192
538.800	2781.808
538.928	2802.225
539.056	2807.475
539.185	2804.158
539.313	2789.158
539.441	2792.142
539.569	2820.092
539.697	2810.167
539.825	2821.483
539.953	2814.650
540.081	2797.625
540.210	2798.442
540.338	2811.367
540.466	2799.825
540.594	2814.217
540.722	2809.125
540.850	2829.150
540.978	2809.075
541.106	2811.592
541.235	2815.392
541.363	2793.908
541.491	2807.692
541.619	2792.117
541.747	2780.692
541.875	2796.867
542.003	2791.483
542.131	2803.875
542.260	2798.433
542.388	2806.125
542.516	2792.467
542.644	2777.075
542.772	2801.092
542.900	2777.033
543.028	2793.533
543.156	2791.683
543.285	2792.217
543.413	2772.675
543.541	2788.483
543.669	2789.275
543.797	2791.175
543.925	2774.408
544.053	2782.242
544.181	2781.933
544.310	2786.708
544.438	2777.533
544.566	2790.642
544.694	2773.175
544.822	2786.950
544.950	2798.558
545.078	2790.058
545.206	2776.375
545.335	2791.675
545.463	2788.833
545.591	2789.383
545.719	2773.375
545.847	2772.900
545.975	2799.442
546.103	2795.208
546.231	2778.508
546.360	2772.242
546.488	2792.450
546.616	2785.350
546.744	2802.308
546.872	2786.267
547.000	2791.117
547.128	2791.475
547.256	2776.558
547.385	2782.417
547.513	2794.175
547.641	2786.975
547.769	2799.400
547.897	2793.683
548.025	2783.733
548.153	2790.883
548.281	2766.592
548.410	2777.308
548.538	2779.425
548.666	2772.367
548.794	2776.242
548.922	2770.642
549.050	2783.067
549.178	2772.658
549.306	2770.275
549.435	2768.400
549.563	2764.292
549.691	2774.775
549.819	2781.592
549.947	2779.308
550.075	2763.717
550.203	2753.683
550.331	2762.283
550.460	2751.750
550.588	2735.825
550.716	2762.867
550.844	2741.725
550.972	2732.450
551.100	2745.508
551.228	2737.733
551.356	2732.450
551.485	2737.817
551.613	2719.058
551.741	2722.942
551.869	2710.608
551.997	2712.442
552.125	2697.642
552.253	2691.800
552.381	2693.625
552.510	2688.333
552.638	2679.117
552.766	2678.883
552.894	2661.267
553.022	2677.725
553.150	2652.017
553.278	2669.967
553.406	2670.125
553.535	2648.783
553.663	2649.775
553.791	2643.100
553.919	2642.183
554.047	2637.175
554.175	2639.200
554.303	2629.667
554.431	2631.267
554.560	2629.850
554.688	2638.850
554.816	2617.192
554.944	2624.625
555.072	2601.600
555.200	2621.958
555.328	2617.225
555.456	2621.350
555.585	2600.608
555.713	2591.583
555.841	2608.833
555.969	2609.358
556.097	2598.258
556.225	2601.617
556.353	2595.617
556.481	2596.992
556.610	2603.975
556.738	2615.167
556.866	2608.242
556.994	2602.358
557.122	2589.658
557.250	2602.158
557.378	2609.325
557.506	2596.858
557.635	2605.575
557.763	2593.592
557.891	2614.458
558.019	2585.425
558.147	2597.567
558.275	2600.892
558.403	2615.117
558.531	2592.383
558.660	2607.850
558.788	2608.133
558.916	2595.183
559.044	2586.483
559.172	2603.933
559.300	2609.800
559.428	2602.342
559.556	2594.483
559.685	2594.067
559.813	2589.183
559.941	2613.833
560.069	2598.233
560.197	2596.542
560.325	2598.033
560.453	2570.225
560.581	2580.317
560.710	2569.442
560.838	2578.833
560.966	2589.250
561.094	2593.567
561.222	2590.758
561.350	2570.300
561.478	2564.400
561.606	2568.517
561.735	2574.308
561.863	2551.533
561.991	2561.008
562.119	2548.483
562.247	2552.083
562.375	2549.558
562.503	2557.142
562.631	2531.983
562.760	2533.400
562.888	2552.675
563.016	2535.850
563.144	2538.692
563.272	2514.358
563.400	2527.700
563.528	2507.475
563.656	2532.817
563.785	2524.350
563.913	2499.725
564.041	2507.958
564.169	2495.892
564.297	2502.417
564.425	2505.617
564.553	2520.208
564.681	2500.350
564.810	2500.233
564.938	2508.133
565.066	2484.850
565.194	2502.575
565.322	2491.183
565.450	2493.992
565.578	2505.800
565.706	2492.092
565.835	2496.733
565.963	2485.867
566.091	2478.042
566.219	2502.167
566.347	2493.275
566.475	2488.350
566.603	2485.417
566.731	2487.383
566.860	2484.792
566.988	2480.650
567.116	2501.408
567.244	2493.433
567.372	2498.642
567.500	2505.892
567.628	2494.558
567.756	2496.450
567.885	2503.517
568.013	2499.075
568.141	2500.750
568.269	2484.942
568.397	2492.517
568.525	2486.933
568.653	2510.583
568.781	2504.258
568.910	2516.892
569.038	2509.208
569.166	2504.383
569.294	2486.608
569.422	2513.517
569.550	2506.408
569.678	2503.433
569.806	2508.675
569.935	2520.983
570.063	2517.600
570.191	2519.883
570.319	2530.742
570.447	2510.775
570.575	2510.358
570.703	2524.600
570.831	2530.583
570.960	2522.733
571.088	2518.475
571.216	2509.267
571.344	2518.792
571.472	2503.050
571.600	2539.692
571.728	2511.683
571.856	2520.958
571.985	2518.708
572.113	2524.867
572.241	2530.833
572.369	2518.417
572.497	2516.908
572.625	2510.400
572.753	2506.133
572.881	2520.867
573.010	2513.550
573.138	2543.167
573.266	2532.792
573.394	2522.217
573.522	2519.942
573.650	2528.058
573.778	2526.083
573.906	2511.808
574.035	2524.292
574.163	2520.242
574.291	2516.442
574.419	2518.958
574.547	2510.458
574.675	2518.850
574.803	2507.833
574.931	2501.375
575.060	2523.258
575.188	2501.925
575.316	2498.708
575.444	2495.850
575.572	2500.958
575.700	2490.600
575.828	2500.200
575.956	2498.967
576.085	2479.325
576.213	2487.917
576.341	2482.267
576.469	2478.717
576.597	2474.442
576.725	2476.275
576.853	2468.383
576.981	2464.825
577.110	2470.833
577.238	2477.883
577.366	2472.342
577.494	2453.967
577.622	2443.083
577.750	2455.892
577.878	2457.300
578.006	2463.000
578.135	2457.500
578.263	2464.817
578.391	2459.267
578.519	2434.642
578.647	2462.425
578.775	2442.167
578.903	2436.158
579.031	2446.708
579.160	2433.700
579.288	2433.067
579.416	2428.092
579.544	2435.400
579.672	2430.900
579.800	2422.317
579.928	2419.233
580.056	2428.592
580.185	2424.958
580.313	2428.858
580.441	2428.808
580.569	2426.183
580.697	2418.525
580.825	2436.108
580.953	2438.242
581.081	2422.942
581.210	2445.067
581.338	2426.508
581.466	2429.233
581.594	2435.942
581.722	2439.533
581.850	2429.692
581.978	2437.158
582.106	2429.950
582.235	2439.342
582.363	2432.008
582.491	2435.550
582.619	2460.667
582.747	2449.992
582.875	2442.417
583.003	2451.942
583.131	2450.292
583.260	2464.592
583.388	2472.017
583.516	2455.758
583.644	2476.292
583.772	2475.967
583.900	2486.375
584.028	2492.467
584.156	2475.850
584.285	2499.500
584.413	2487.208
584.541	2487.458
584.669	2500.133
584.797	2501.975
584.925	2514.700
585.053	2501.725
585.181	2509.767
585.310	2514.833
585.438	2522.017
585.566	2525.817
585.694	2532.242
585.822	2542.067
585.950	2525.417
586.078	2535.850
586.206	2542.342
586.335	2550.733
586.463	2554.750
586.591	2552.325
586.719	2544.125
586.847	2556.842
586.975	2555.425
587.103	2563.708
587.231	2543.033
587.360	2567.883
587.488	2555.200
587.616	2550.200
587.744	2576.033
587.872	2565.917
588.000	2570.667
588.128	2561.117
588.256	2571.175
588.385	2571.800
588.513	2573.058
588.641	2566.100
588.769	2586.650
588.897	2566.633
589.025	2577.600
589.153	2565.533
589.281	2560.067
589.410	2570.342
589.538	2554.008
589.666	2569.917
589.794	2579.567
589.922	2585.725
590.050	2580.292
590.178	2561.192
590.306	2564.050
590.435	2570.550
590.563	2565.300
590.691	2566.042
590.819	2567.875
590.947	2592.092
591.075	2576.450
591.203	2569.683
591.331	2574.433
591.460	2582.158
591.588	2579.467
591.716	2591.008
591.844	2570.042
591.972	2590.992
592.100	2583.050
592.228	2581.025
592.356	2576.233
592.485	2577.842
592.613	2580.333
592.741	2592.525
592.869	2584.150
592.997	2584.483
593.125	2599.775
593.253	2608.050
593.381	2590.267
593.510	2601.067
593.638	2595.258
593.766	2601.900
593.894	2600.775
594.022	2602.692
594.150	2601.400
594.278	2624.025
594.406	2599.167
594.535	2603.650
594.663	2622.500
594.791	2635.133
594.919	2615.383
595.047	2642.292
595.175	2637.742
595.303	2633.425
595.431	2634.192
595.560	2664.700
595.688	2652.750
595.816	2648.275
595.944	2656.942
596.072	2661.650
596.200	2655.550
596.328	2671.342
596.456	2663.667
596.585	2665.300
596.713	2681.883
596.841	2677.858
596.969	2675.558
597.097	2695.558
597.225	2705.775
597.353	2701.875
597.481	2692.333
597.610	2697.792
597.738	2713.025
597.866	2703.317
597.994	2714.600
598.122	2740.250
598.250	2730.600
598.378	2707.967
598.506	2732.800
598.635	2727.833
598.763	2743.192
598.891	2737.350
599.019	2739.708
599.147	2733.683
599.275	2746.492
599.403	2747.808
599.531	2773.550
599.660	2765.883
599.788	2765.133
599.916	2767.992
600.044	2779.575
600.172	2772.817
600.300	2781.708
600.428	2766.875
600.556	2789.800
600.685	2804.792
600.813	2784.483
600.941	2830.017
601.069	2799.808
601.197	2816.267
601.325	2817.725
601.453	2811.867
601.581	2830.083
601.710	2833.850
601.838	2838.325
601.966	2862.308
602.094	2853.117
602.222	2860.633
602.350	2836.325
602.478	2865.192
602.606	2883.483
602.735	2866.325
602.863	2895.208
602.991	2899.900
603.119	2885.800
603.247	2886.017
603.375	2898.708
603.503	2903.050
603.631	2930.100
603.760	2924.525
603.888	2934.033
604.016	2934.767
604.144	2936.833
604.272	2956.625
604.400	2935.142
604.528	2949.433
604.656	2975.717
604.785	2971.383
604.913	2987.783
605.041	2971.883
605.169	2994.658
605.297	3006.883
605.425	2991.617
605.553	3022.292
605.681	3005.367
605.810	3024.317
605.938	3031.733
606.066	3014.458
606.194	3031.892
606.322	3019.375
606.450	3039.525
606.578	3034.500
606.706	3046.217
606.835	3063.633
606.963	3080.867
607.091	3071.617
607.219	3060.392
607.347	3044.150
607.475	3089.642
607.603	3068.525
607.731	3051.000
607.860	3088.717
607.988	3055.017
608.116	3096.150
608.244	3079.142
608.372	3099.525
608.500	3087.717
608.628	3084.817
608.756	3091.425
608.885	3136.733
609.013	3087.425
609.141	3070.508
609.269	3068.583
609.397	3097.900
609.525	3093.117
609.653	3116.817
609.781	3102.842
609.910	3101.367
610.038	3189.508
610.166	3121.300
610.294	3100.042
610.422	3107.758
610.550	3094.258
610.678	3098.633
610.806	3130.400
610.935	3099.200
611.063	3106.967
611.191	3134.175
611.319	3146.042
611.447	3123.325
611.575	3115.950
611.703	3114.308
611.831	3131.925
611.960	3127.858
612.088	3134.033
612.216	3126.925
612.344	3133.525
612.472	3147.542
612.600	3152.142
612.728	3153.383
612.856	3108.092
612.985	3125.750
613.113	3168.350
613.241	3175.408
613.369	3145.167
613.497	3168.692
613.625	3189.575
613.753	3145.450
613.881	3179.133
614.010	3149.750
614.138	3209.625
614.266	3175.092
614.394	3204.075
614.522	3204.167
614.650	3195.642
614.778	3195.600
614.906	3195.075
615.035	3223.392
615.163	3186.550
615.291	3235.658
615.419	3202.475
615.547	3195.017
615.675	3230.375
615.803	3264.592
615.931	3240.975
616.060	3226.008
616.188	3254.025
616.316	3246.600
616.444	3231.475
616.572	3287.483
616.700	3292.417
616.828	3286.500
616.956	3292.358
617.085	3300.833
617.213	3279.308
617.341	3302.008
617.469	3383.208
617.597	3296.358
617.725	3290.150
617.853	3319.442
617.981	3320.325
618.110	3375.742
618.238	3354.167
618.366	3328.017
618.494	3339.875
618.622	3347.783
618.750	3411.133
618.878	3404.850
619.006	3377.742
619.135	3434.742
619.263	3410.925
619.391	3405.958
619.519	3419.092
619.647	3461.633
619.775	3451.250
619.903	3462.467
620.031	3445.983
620.160	3440.392
620.288	3462.758
620.416	3470.725
620.544	3489.442
620.672	3479.167
620.800	3499.108
620.928	3502.467
621.056	3539.067
621.185	3529.217
621.313	3509.625
621.441	3535.017
621.569	3532.458
621.697	3548.975
621.825	3557.475
621.953	3548.208
622.081	3571.450
622.210	3538.717
622.338	3585.833
622.466	3594.608
622.594	3621.175
622.722	3593.583
622.850	3629.575
622.978	3653.267
623.106	3641.917
623.235	3632.517
623.363	3650.358
623.491	3628.425
623.619	3669.867
623.747	3642.125
623.875	3700.100
624.003	3647.817
624.131	3679.483
624.260	3702.467
624.388	3681.417
624.516	3691.975
624.644	3672.475
624.772	3676.442
624.900	3663.842
625.028	3688.642
625.156	3677.775
625.285	3722.367
625.413	3719.500
625.541	3730.292
625.669	3707.417
625.797	3727.642
625.925	3730.567
626.053	3716.275
626.181	3685.867
626.310	3809.417
626.438	3693.192
626.566	3717.708
626.694	3709.308
626.822	3717.683
626.950	3758.642
627.078	3703.600
627.206	3739.975
627.335	3737.458
627.463	3730.500
627.591	3758.642
627.719	3780.967
627.847	3746.583
627.975	3757.900
628.103	3770.117
628.231	3769.150
628.360	3752.683
628.488	3751.367
628.616	3764.392
628.744	3776.008
628.872	3780.342
629.000	3768.400
629.128	3785.692
629.256	3761.867
629.385	3774.275
629.513	3774.792
629.641	3789.125
629.769	3831.625
629.897	3802.883
630.025	3770.975
630.153	3827.775
630.281	3786.033
630.410	3784.050
630.538	3797.175
630.666	3810.975
630.794	3795.433
630.922	3839.858
631.050	3804.575
631.178	3818.067
631.306	3818.350
631.435	3791.767
631.563	3824.750
631.691	3856.500
631.819	3918.767
631.947	3818.958
632.075	3790.817
632.203	3858.183
632.331	3801.792
632.460	3824.558
632.588	3818.700
632.716	3821.625
632.844	3866.375
632.972	3801.533
633.100	3800.158
633.228	3844.942
633.356	3824.950
633.485	3839.100
633.613	3836.983
633.741	3847.617
633.869	3818.542
633.997	3822.442
634.125	3866.292
634.253	3813.908
634.381	3837.767
634.510	3855.675
634.638	3830.475
634.766	3889.583
634.894	3829.050
635.022	3831.167
635.150	3820.975
635.278	3842.358
635.406	3829.067
635.535	3839.633
635.663	3837.792
635.791	3784.475
635.919	3814.458
636.047	3816.417
636.175	3797.900
636.303	3820.733
636.431	3833.883
636.560	3814.842
636.688	3802.817
636.816	3822.533
636.944	3814.767
637.072	3818.450
637.200	3820.092
637.328	3829.758
637.456	3819.700
637.585	3803.100
637.713	3837.375
637.841	3803.025
637.969	3811.608
638.097	3824.742
638.225	3819.383
638.353	3791.533
638.481	3808.250
638.610	3821.117
638.738	3813.133
638.866	3815.200
638.994	3820.650
639.122	3814.650
639.250	3791.975
639.378	3836.342
639.506	3817.850
639.635	3834.192
639.763	3782.183
639.891	3832.533
640.019	3833.908
640.147	3859.050
640.275	3816.683
640.403	3790.842
640.531	3864.433
640.660	3821.483
640.788	3900.467
640.916	3819.717
641.044	3846.167
641.172	3804.633
641.300	3823.083
641.428	3810.167
641.556	3829.608
641.685	3829.583
641.813	3812.908
641.941	3819.000
642.069	3842.783
642.197	3853.442
642.325	3860.183
642.453	3830.258
642.581	3934.583
642.710	3783.192
642.838	3849.875
642.966	3831.400
643.094	3826.617
643.222	3813.858
643.350	3854.383
643.478	3863.725
643.606	3841.775
643.735	3793.017
643.863	3850.050
643.991	3831.067
644.119	3832.258
644.247	3830.600
644.375	3810.308
644.503	3838.500
644.631	3860.492
644.760	3856.442
644.888	3850.308
645.016	3847.350
645.144	3853.975
645.272	3799.133
645.400	3866.267
645.528	3849.542
645.656	3814.517
645.785	3822.892
645.913	3880.950
646.041	3842.350
646.169	3870.292
646.297	3808.125
646.425	3839.367
646.553	3804.983
646.681	3782.442
646.810	3819.075
646.938	3792.817
647.066	3749.092
647.194	3858.300
647.322	3774.033
647.450	3760.783
647.578	3783.558
647.706	3769.492
647.835	3735.267
647.963	3800.817
648.091	3743.050
648.219	3794.092
648.347	3763.383
648.475	3732.717
648.603	3752.750
648.731	3728.892
648.860	3714.667
648.988	3698.933
649.116	3695.067
649.244	3678.250
649.372	3681.717
649.500	3678.100
649.628	3707.400
649.756	3681.308
649.885	3645.775
650.013	3620.700
650.141	3638.958
650.269	3576.608
650.397	3590.050
650.525	3557.892
650.653	3618.783
650.781	3605.892
650.910	3552.633
651.038	3519.383
651.166	3533.083
651.294	3531.117
651.422	3516.617
651.550	3476.558
651.678	3500.425
651.806	3468.533
651.935	3493.792
652.063	3496.867
652.191	3462.100
652.319	3438.925
652.447	3437.517
652.575	3435.250
652.703	3459.008
652.831	3434.442
652.960	3397.183
653.088	3407.775
653.216	3393.867
653.344	3414.025
653.472	3368.750
653.600	3352.833
653.728	3340.100
653.856	3361.042
653.985	3328.233
654.113	3315.533
654.241	3335.067
654.369	3319.908
654.497	3334.417
654.625	3333.075
654.753	3286.633
654.881	3341.000
655.010	3358.100
655.138	3277.525
655.266	3279.425
655.394	3273.525
655.522	3308.892
655.650	3226.358
655.778	3322.275
655.906	3250.142
656.035	3227.133
656.163	3213.750
656.291	3206.500
656.419	3222.050
656.547	3208.042
656.675	3201.800
