90-80-0_at_679.99nm_cut_at_1253.00Y_01.dat
24.01.2024
13:26:30
cut middle at Y: 1253.00
top cursor: 1313 down cursor: 1193 mean of: 120 lines , 2560 datapoints
wavelength(nm)	intensity[arb. units]
515.994	878.117
516.122	829.100
516.250	814.492
516.378	815.008
516.506	815.475
516.635	824.950
516.763	827.775
516.891	824.117
517.019	830.533
517.147	832.550
517.275	828.542
517.403	831.533
517.531	821.458
517.660	829.875
517.788	826.550
517.916	833.667
518.044	831.550
518.172	837.292
518.300	832.167
518.428	830.683
518.556	831.683
518.685	827.833
518.813	835.633
518.941	839.450
519.069	841.950
519.197	840.733
519.325	847.758
519.453	835.833
519.581	840.950
519.710	844.542
519.838	846.900
519.966	842.417
520.094	853.425
520.222	847.808
520.350	845.283
520.478	856.383
520.606	859.000
520.735	853.017
520.863	865.792
520.991	860.067
521.119	858.000
521.247	862.283
521.375	872.417
521.503	869.233
521.631	866.292
521.760	873.958
521.888	879.158
522.016	876.425
522.144	879.092
522.272	892.083
522.400	890.150
522.528	890.275
522.656	889.425
522.785	891.083
522.913	891.025
523.041	891.642
523.169	897.350
523.297	895.017
523.425	898.375
523.553	890.692
523.681	904.558
523.810	903.358
523.938	907.833
524.066	898.058
524.194	905.217
524.322	909.208
524.450	911.867
524.578	903.317
524.706	907.825
524.835	910.342
524.963	914.425
525.091	907.875
525.219	907.583
525.347	908.450
525.475	915.783
525.603	911.900
525.731	906.400
525.860	912.983
525.988	912.642
526.116	922.883
526.244	904.917
526.372	910.242
526.500	913.175
526.628	920.800
526.756	915.233
526.885	913.875
527.013	917.683
527.141	917.667
527.269	918.433
527.397	912.783
527.525	911.092
527.653	910.958
527.781	920.183
527.910	915.650
528.038	916.325
528.166	920.683
528.294	921.108
528.422	918.350
528.550	918.883
528.678	925.742
528.806	921.925
528.935	924.908
529.063	925.075
529.191	931.725
529.319	929.683
529.447	934.550
529.575	937.608
529.703	924.867
529.831	925.908
529.960	933.408
530.088	935.475
530.216	927.008
530.344	924.492
530.472	934.650
530.600	934.408
530.728	937.958
530.856	930.058
530.985	927.775
531.113	926.758
531.241	930.025
531.369	929.392
531.497	926.400
531.625	929.683
531.753	926.833
531.881	926.642
532.010	922.967
532.138	933.025
532.266	923.667
532.394	926.250
532.522	917.975
532.650	922.767
532.778	932.108
532.906	916.508
533.035	925.833
533.163	926.200
533.291	917.500
533.419	919.717
533.547	914.825
533.675	928.333
533.803	914.692
533.931	917.233
534.060	918.542
534.188	915.908
534.316	918.317
534.444	916.200
534.572	925.042
534.700	927.958
534.828	927.233
534.956	918.825
535.085	931.292
535.213	920.333
535.341	928.183
535.469	928.242
535.597	937.767
535.725	939.225
535.853	941.100
535.981	937.417
536.110	941.158
536.238	943.533
536.366	948.800
536.494	944.683
536.622	953.408
536.750	950.033
536.878	952.733
537.006	959.750
537.135	954.983
537.263	955.258
537.391	964.800
537.519	956.283
537.647	959.975
537.775	961.275
537.903	967.075
538.031	967.608
538.160	964.692
538.288	970.583
538.416	972.492
538.544	963.525
538.672	968.017
538.800	965.075
538.928	968.883
539.056	976.442
539.185	974.200
539.313	961.650
539.441	970.292
539.569	975.292
539.697	966.100
539.825	977.558
539.953	976.108
540.081	966.933
540.210	974.358
540.338	976.125
540.466	980.717
540.594	977.092
540.722	971.950
540.850	973.400
540.978	970.292
541.106	958.400
541.235	974.492
541.363	972.408
541.491	963.492
541.619	970.175
541.747	969.508
541.875	972.192
542.003	964.700
542.131	967.117
542.260	965.692
542.388	972.958
542.516	963.033
542.644	966.283
542.772	966.558
542.900	965.892
543.028	963.975
543.156	968.117
543.285	969.650
543.413	968.017
543.541	976.742
543.669	967.975
543.797	966.083
543.925	969.625
544.053	974.225
544.181	970.250
544.310	961.142
544.438	971.633
544.566	972.183
544.694	966.175
544.822	974.600
544.950	971.525
545.078	965.083
545.206	963.508
545.335	972.258
545.463	968.042
545.591	963.683
545.719	972.817
545.847	978.108
545.975	970.867
546.103	969.967
546.231	975.833
546.360	965.675
546.488	975.692
546.616	970.725
546.744	972.033
546.872	971.367
547.000	971.933
547.128	973.633
547.256	964.658
547.385	962.567
547.513	966.333
547.641	966.975
547.769	961.358
547.897	962.125
548.025	961.725
548.153	965.067
548.281	957.433
548.410	960.217
548.538	959.683
548.666	961.633
548.794	964.867
548.922	960.600
549.050	968.792
549.178	956.967
549.306	966.433
549.435	955.317
549.563	955.792
549.691	956.650
549.819	959.650
549.947	961.458
550.075	959.392
550.203	954.758
550.331	955.667
550.460	953.867
550.588	955.758
550.716	955.583
550.844	953.058
550.972	946.758
551.100	954.067
551.228	947.275
551.356	958.533
551.485	949.183
551.613	950.733
551.741	940.333
551.869	942.825
551.997	941.142
552.125	937.292
552.253	944.075
552.381	940.667
552.510	942.017
552.638	940.092
552.766	940.550
552.894	936.875
553.022	939.242
553.150	928.583
553.278	922.967
553.406	931.317
553.535	927.292
553.663	928.967
553.791	921.458
553.919	922.700
554.047	932.058
554.175	920.658
554.303	914.083
554.431	911.408
554.560	917.108
554.688	922.025
554.816	921.692
554.944	913.958
555.072	917.867
555.200	924.083
555.328	908.892
555.456	908.775
555.585	910.658
555.713	910.600
555.841	910.825
555.969	907.100
556.097	909.675
556.225	904.200
556.353	908.608
556.481	900.683
556.610	911.200
556.738	910.050
556.866	910.442
556.994	897.608
557.122	899.042
557.250	900.525
557.378	905.125
557.506	903.883
557.635	904.008
557.763	900.192
557.891	909.817
558.019	898.092
558.147	900.917
558.275	899.592
558.403	904.900
558.531	900.833
558.660	899.192
558.788	901.342
558.916	896.742
559.044	900.342
559.172	896.325
559.300	901.292
559.428	896.783
559.556	899.667
559.685	899.650
559.813	889.500
559.941	896.300
560.069	899.267
560.197	904.017
560.325	889.992
560.453	896.650
560.581	891.633
560.710	888.500
560.838	892.900
560.966	891.233
561.094	895.967
561.222	891.725
561.350	884.508
561.478	884.950
561.606	893.575
561.735	887.842
561.863	881.250
561.991	876.617
562.119	885.183
562.247	881.400
562.375	880.483
562.503	879.867
562.631	877.192
562.760	875.983
562.888	877.117
563.016	882.917
563.144	870.808
563.272	876.425
563.400	872.592
563.528	870.667
563.656	877.708
563.785	879.542
563.913	866.958
564.041	863.758
564.169	869.833
564.297	873.508
564.425	874.383
564.553	877.508
564.681	873.550
564.810	877.175
564.938	869.908
565.066	867.667
565.194	870.358
565.322	873.208
565.450	878.242
565.578	872.917
565.706	867.267
565.835	865.325
565.963	863.592
566.091	866.942
566.219	871.600
566.347	865.000
566.475	873.108
566.603	872.375
566.731	866.967
566.860	872.017
566.988	871.542
567.116	872.950
567.244	874.208
567.372	880.900
567.500	870.900
567.628	867.108
567.756	865.408
567.885	877.167
568.013	877.825
568.141	869.175
568.269	870.833
568.397	872.167
568.525	876.800
568.653	871.100
568.781	871.650
568.910	878.092
569.038	872.958
569.166	872.850
569.294	870.275
569.422	875.308
569.550	860.783
569.678	871.617
569.806	875.908
569.935	869.475
570.063	871.383
570.191	875.683
570.319	875.467
570.447	873.642
570.575	874.583
570.703	874.383
570.831	884.258
570.960	875.075
571.088	871.117
571.216	871.308
571.344	867.950
571.472	874.533
571.600	876.458
571.728	871.417
571.856	873.950
571.985	874.800
572.113	878.700
572.241	866.683
572.369	880.558
572.497	876.550
572.625	877.708
572.753	876.950
572.881	876.567
573.010	866.350
573.138	881.767
573.266	875.292
573.394	874.642
573.522	880.000
573.650	873.758
573.778	873.500
573.906	878.600
574.035	871.917
574.163	878.608
574.291	875.567
574.419	872.575
574.547	881.667
574.675	878.250
574.803	876.358
574.931	870.433
575.060	874.317
575.188	871.308
575.316	874.267
575.444	873.492
575.572	877.525
575.700	875.675
575.828	883.067
575.956	882.392
576.085	874.708
576.213	880.167
576.341	872.917
576.469	872.792
576.597	876.983
576.725	872.417
576.853	874.642
576.981	872.067
577.110	871.842
577.238	871.517
577.366	868.383
577.494	865.808
577.622	873.225
577.750	867.225
577.878	871.567
578.006	874.250
578.135	870.092
578.263	867.592
578.391	879.633
578.519	874.350
578.647	878.800
578.775	865.017
578.903	872.933
579.031	872.325
579.160	863.850
579.288	869.258
579.416	870.175
579.544	877.708
579.672	874.683
579.800	867.742
579.928	867.183
580.056	869.183
580.185	870.442
580.313	873.433
580.441	878.450
580.569	869.300
580.697	875.908
580.825	879.092
580.953	877.017
581.081	870.658
581.210	880.125
581.338	877.867
581.466	881.742
581.594	883.992
581.722	871.967
581.850	880.608
581.978	885.417
582.106	883.150
582.235	883.567
582.363	881.292
582.491	888.275
582.619	889.900
582.747	888.058
582.875	881.992
583.003	891.183
583.131	893.942
583.260	896.233
583.388	893.500
583.516	902.633
583.644	901.608
583.772	897.217
583.900	904.950
584.028	904.017
584.156	902.117
584.285	909.225
584.413	900.583
584.541	909.867
584.669	908.433
584.797	913.058
584.925	914.942
585.053	913.142
585.181	917.333
585.310	926.683
585.438	920.808
585.566	925.525
585.694	924.025
585.822	924.958
585.950	926.567
586.078	925.892
586.206	932.308
586.335	934.633
586.463	944.475
586.591	943.767
586.719	941.958
586.847	942.908
586.975	940.875
587.103	946.175
587.231	935.742
587.360	943.950
587.488	946.842
587.616	936.592
587.744	949.667
587.872	948.092
588.000	946.092
588.128	952.800
588.256	950.850
588.385	939.933
588.513	952.033
588.641	956.450
588.769	960.842
588.897	949.300
589.025	952.608
589.153	954.825
589.281	955.500
589.410	945.917
589.538	953.242
589.666	960.633
589.794	950.692
589.922	961.567
590.050	963.442
590.178	954.125
590.306	956.725
590.435	952.642
590.563	963.400
590.691	968.292
590.819	958.242
590.947	969.908
591.075	955.650
591.203	958.275
591.331	975.675
591.460	967.775
591.588	965.292
591.716	972.800
591.844	977.208
591.972	972.017
592.100	967.683
592.228	977.433
592.356	970.150
592.485	961.150
592.613	973.658
592.741	973.100
592.869	978.650
592.997	974.575
593.125	979.183
593.253	988.717
593.381	981.883
593.510	990.225
593.638	985.842
593.766	989.158
593.894	983.758
594.022	984.367
594.150	988.725
594.278	998.933
594.406	993.583
594.535	998.425
594.663	1002.600
594.791	1000.700
594.919	997.533
595.047	1008.292
595.175	1006.192
595.303	1005.242
595.431	1003.292
595.560	1015.617
595.688	1008.417
595.816	1010.367
595.944	1015.842
596.072	1029.475
596.200	1016.308
596.328	1019.950
596.456	1032.092
596.585	1019.175
596.713	1032.633
596.841	1023.425
596.969	1028.683
597.097	1037.150
597.225	1036.867
597.353	1041.125
597.481	1032.350
597.610	1041.033
597.738	1036.908
597.866	1030.733
597.994	1043.867
598.122	1053.058
598.250	1044.908
598.378	1042.333
598.506	1052.225
598.635	1045.267
598.763	1054.400
598.891	1057.708
599.019	1055.192
599.147	1045.000
599.275	1048.758
599.403	1066.158
599.531	1060.317
599.660	1063.225
599.788	1066.542
599.916	1061.550
600.044	1068.267
600.172	1075.600
600.300	1077.775
600.428	1074.333
600.556	1077.992
600.685	1090.792
600.813	1075.292
600.941	1094.733
601.069	1090.625
601.197	1092.500
601.325	1085.867
601.453	1089.350
601.581	1099.025
601.710	1103.242
601.838	1108.983
601.966	1108.917
602.094	1108.167
602.222	1109.825
602.350	1105.325
602.478	1112.258
602.606	1122.475
602.735	1114.975
602.863	1127.792
602.991	1140.408
603.119	1140.225
603.247	1136.767
603.375	1140.633
603.503	1140.308
603.631	1144.708
603.760	1150.075
603.888	1150.358
604.016	1148.675
604.144	1147.033
604.272	1160.617
604.400	1157.950
604.528	1152.283
604.656	1168.275
604.785	1163.050
604.913	1175.442
605.041	1178.583
605.169	1177.450
605.297	1174.333
605.425	1182.842
605.553	1190.067
605.681	1187.017
605.810	1190.850
605.938	1190.717
606.066	1184.433
606.194	1199.150
606.322	1197.725
606.450	1208.942
606.578	1203.617
606.706	1214.792
606.835	1207.883
606.963	1220.583
607.091	1222.900
607.219	1209.292
607.347	1214.058
607.475	1232.008
607.603	1217.725
607.731	1223.333
607.860	1221.392
607.988	1227.050
608.116	1227.883
608.244	1237.683
608.372	1232.825
608.500	1229.875
608.628	1230.000
608.756	1233.383
608.885	1242.583
609.013	1242.100
609.141	1241.117
609.269	1240.025
609.397	1239.242
609.525	1245.325
609.653	1243.792
609.781	1248.425
609.910	1247.092
610.038	1255.867
610.166	1253.725
610.294	1252.933
610.422	1260.742
610.550	1257.233
610.678	1255.158
610.806	1266.900
610.935	1256.383
611.063	1260.442
611.191	1270.575
611.319	1268.467
611.447	1267.750
611.575	1262.967
611.703	1263.708
611.831	1279.142
611.960	1276.517
612.088	1282.525
612.216	1284.242
612.344	1284.250
612.472	1271.075
612.600	1282.858
612.728	1277.117
612.856	1286.417
612.985	1283.483
613.113	1279.575
613.241	1295.625
613.369	1294.425
613.497	1288.083
613.625	1304.183
613.753	1295.100
613.881	1294.817
614.010	1295.908
614.138	1295.517
614.266	1297.908
614.394	1291.992
614.522	1299.317
614.650	1316.242
614.778	1304.675
614.906	1323.217
615.035	1309.342
615.163	1309.217
615.291	1326.233
615.419	1331.167
615.547	1314.517
615.675	1319.533
615.803	1325.308
615.931	1342.192
616.060	1335.483
616.188	1331.558
616.316	1333.792
616.444	1323.858
616.572	1336.358
616.700	1335.092
616.828	1358.483
616.956	1361.767
617.085	1374.925
617.213	1356.858
617.341	1352.383
617.469	1360.292
617.597	1367.125
617.725	1367.117
617.853	1364.375
617.981	1373.800
618.110	1382.042
618.238	1379.442
618.366	1386.758
618.494	1396.758
618.622	1387.142
618.750	1391.158
618.878	1397.617
619.006	1397.558
619.135	1412.067
619.263	1412.758
619.391	1404.942
619.519	1416.358
619.647	1431.108
619.775	1423.308
619.903	1424.242
620.031	1428.533
620.160	1441.383
620.288	1430.350
620.416	1440.933
620.544	1442.725
620.672	1452.367
620.800	1443.258
620.928	1462.858
621.056	1460.625
621.185	1461.183
621.313	1465.967
621.441	1475.783
621.569	1485.025
621.697	1484.425
621.825	1499.833
621.953	1481.975
622.081	1492.292
622.210	1488.275
622.338	1488.233
622.466	1494.858
622.594	1507.600
622.722	1506.842
622.850	1510.283
622.978	1509.100
623.106	1510.867
623.235	1524.217
623.363	1523.908
623.491	1520.217
623.619	1517.150
623.747	1516.775
623.875	1533.150
624.003	1525.617
624.131	1526.483
624.260	1513.250
624.388	1533.125
624.516	1549.550
624.644	1526.725
624.772	1549.600
624.900	1552.542
625.028	1536.292
625.156	1567.400
625.285	1543.300
625.413	1556.458
625.541	1547.283
625.669	1560.650
625.797	1546.075
625.925	1562.683
626.053	1554.583
626.181	1569.783
626.310	1562.275
626.438	1562.000
626.566	1553.067
626.694	1567.008
626.822	1565.125
626.950	1565.283
627.078	1569.317
627.206	1558.942
627.335	1575.533
627.463	1585.850
627.591	1579.250
627.719	1577.925
627.847	1586.942
627.975	1577.258
628.103	1574.975
628.231	1593.575
628.360	1580.475
628.488	1587.067
628.616	1582.408
628.744	1584.117
628.872	1586.167
629.000	1584.175
629.128	1588.983
629.256	1602.617
629.385	1589.708
629.513	1588.175
629.641	1597.267
629.769	1580.308
629.897	1593.417
630.025	1602.717
630.153	1609.717
630.281	1607.175
630.410	1587.592
630.538	1617.125
630.666	1614.642
630.794	1605.233
630.922	1602.783
631.050	1598.067
631.178	1613.517
631.306	1604.933
631.435	1609.558
631.563	1616.783
631.691	1590.750
631.819	1614.625
631.947	1621.883
632.075	1606.433
632.203	1620.167
632.331	1626.167
632.460	1607.325
632.588	1629.150
632.716	1612.025
632.844	1615.233
632.972	1615.467
633.100	1634.308
633.228	1612.692
633.356	1611.908
633.485	1623.958
633.613	1635.642
633.741	1615.658
633.869	1621.325
633.997	1610.633
634.125	1617.633
634.253	1611.750
634.381	1606.783
634.510	1619.067
634.638	1605.567
634.766	1614.917
634.894	1609.483
635.022	1612.842
635.150	1607.142
635.278	1628.667
635.406	1619.042
635.535	1614.908
635.663	1625.517
635.791	1605.183
635.919	1623.800
636.047	1600.825
636.175	1605.333
636.303	1619.125
636.431	1615.450
636.560	1625.458
636.688	1617.425
636.816	1614.475
636.944	1601.150
637.072	1615.425
637.200	1608.408
637.328	1600.175
637.456	1609.292
637.585	1619.700
637.713	1606.583
637.841	1596.692
637.969	1597.850
638.097	1592.875
638.225	1626.133
638.353	1615.958
638.481	1606.600
638.610	1626.933
638.738	1607.217
638.866	1598.358
638.994	1608.600
639.122	1602.983
639.250	1614.992
639.378	1606.008
639.506	1592.658
639.635	1608.350
639.763	1584.817
639.891	1611.792
640.019	1613.042
640.147	1612.067
640.275	1596.442
640.403	1592.375
640.531	1597.225
640.660	1596.483
640.788	1600.583
640.916	1602.542
641.044	1614.367
641.172	1598.092
641.300	1608.350
641.428	1611.925
641.556	1614.058
641.685	1586.858
641.813	1583.508
641.941	1606.825
642.069	1603.200
642.197	1610.317
642.325	1593.867
642.453	1610.658
642.581	1614.033
642.710	1603.008
642.838	1607.000
642.966	1598.733
643.094	1595.733
643.222	1607.492
643.350	1585.242
643.478	1605.658
643.606	1602.683
643.735	1587.242
643.863	1589.442
643.991	1609.533
644.119	1603.000
644.247	1599.642
644.375	1602.917
644.503	1604.633
644.631	1603.700
644.760	1605.883
644.888	1605.750
645.016	1601.750
645.144	1615.033
645.272	1600.225
645.400	1605.967
645.528	1600.558
645.656	1588.842
645.785	1594.417
645.913	1596.958
646.041	1601.633
646.169	1577.308
646.297	1580.075
646.425	1582.867
646.553	1565.350
646.681	1576.333
646.810	1577.983
646.938	1582.017
647.066	1561.858
647.194	1574.592
647.322	1576.883
647.450	1565.567
647.578	1579.575
647.706	1554.283
647.835	1566.225
647.963	1551.942
648.091	1562.700
648.219	1544.842
648.347	1559.892
648.475	1551.850
648.603	1556.508
648.731	1549.192
648.860	1541.467
648.988	1540.792
649.116	1536.008
649.244	1524.558
649.372	1520.783
649.500	1509.500
649.628	1517.725
649.756	1513.800
649.885	1497.633
650.013	1493.675
650.141	1493.942
650.269	1486.983
650.397	1497.642
650.525	1484.383
650.653	1488.583
650.781	1471.475
650.910	1466.317
651.038	1457.333
651.166	1465.375
651.294	1446.050
651.422	1454.258
651.550	1444.400
651.678	1430.675
651.806	1426.767
651.935	1442.575
652.063	1421.975
652.191	1419.033
652.319	1426.833
652.447	1417.583
652.575	1408.083
652.703	1399.483
652.831	1396.367
652.960	1390.450
653.088	1389.633
653.216	1377.433
653.344	1370.575
653.472	1384.950
653.600	1371.692
653.728	1360.083
653.856	1359.708
653.985	1361.783
654.113	1349.458
654.241	1353.517
654.369	1345.100
654.497	1357.392
654.625	1346.050
654.753	1343.333
654.881	1335.133
655.010	1334.333
655.138	1331.050
655.266	1327.092
655.394	1309.250
655.522	1318.125
655.650	1293.550
655.778	1314.208
655.906	1313.317
656.035	1299.033
656.163	1294.675
656.291	1295.992
656.419	1290.533
656.547	1296.500
656.675	1276.242
656.803	1273.483
656.931	1276.775
657.060	1280.508
657.188	1271.800
657.316	1270.375
657.444	1273.867
657.572	1268.833
657.700	1255.150
657.828	1257.133
657.956	1256.183
658.085	1274.008
658.213	1242.475
658.341	1247.017
658.469	1241.517
658.597	1238.992
658.725	1246.167
658.853	1228.742
658.981	1225.317
659.110	1226.125
659.238	1230.417
659.366	1221.317
659.494	1204.058
659.622	1207.725
659.750	1213.642
659.878	1204.600
660.006	1196.225
660.135	1212.283
660.263	1192.625
660.391	1183.292
660.519	1191.150
660.647	1180.300
660.775	1176.867
660.903	1175.250
661.031	1166.358
661.160	1169.100
