90-90-90_at_679.99nm_cut_at_1250.00Y_01.dat
24.01.2024
13:28:08
cut middle at Y: 1250.00
top cursor: 1310 down cursor: 1190 mean of: 120 lines , 2560 datapoints
wavelength(nm)	intensity[arb. units]
515.994	286.450
516.122	275.042
516.250	271.592
516.378	267.125
516.506	264.942
516.635	267.075
516.763	270.750
516.891	272.250
517.019	273.883
517.147	270.708
517.275	274.467
517.403	274.733
517.531	269.308
517.660	269.875
517.788	268.817
517.916	276.167
518.044	271.175
518.172	273.783
518.300	274.825
518.428	272.383
518.556	274.133
518.685	271.025
518.813	278.358
518.941	279.275
519.069	273.442
519.197	274.642
519.325	279.783
519.453	278.292
519.581	279.758
519.710	276.408
519.838	279.817
519.966	277.733
520.094	280.650
520.222	277.017
520.350	276.625
520.478	279.883
520.606	285.108
520.735	280.758
520.863	286.067
520.991	283.675
521.119	280.142
521.247	283.767
521.375	282.217
521.503	288.100
521.631	289.558
521.760	287.400
521.888	287.933
522.016	291.025
522.144	288.000
522.272	294.208
522.400	289.442
522.528	293.367
522.656	289.442
522.785	292.642
522.913	290.475
523.041	286.242
523.169	287.133
523.297	288.967
523.425	290.217
523.553	294.050
523.681	292.108
523.810	292.892
523.938	295.050
524.066	293.192
524.194	294.908
524.322	293.392
524.450	288.950
524.578	291.758
524.706	299.792
524.835	290.033
524.963	294.942
525.091	292.750
525.219	296.867
525.347	293.258
525.475	294.233
525.603	294.792
525.731	292.708
525.860	294.458
525.988	292.850
526.116	291.783
526.244	297.458
526.372	294.642
526.500	295.858
526.628	298.100
526.756	292.425
526.885	298.417
527.013	293.583
527.141	297.292
527.269	295.458
527.397	297.458
527.525	295.567
527.653	297.225
527.781	293.600
527.910	300.342
528.038	299.817
528.166	302.400
528.294	296.375
528.422	297.492
528.550	300.308
528.678	300.583
528.806	301.083
528.935	300.042
529.063	302.383
529.191	301.900
529.319	306.008
529.447	305.067
529.575	302.767
529.703	300.917
529.831	304.767
529.960	304.750
530.088	304.925
530.216	307.842
530.344	303.425
530.472	307.467
530.600	309.175
530.728	307.700
530.856	306.083
530.985	309.000
531.113	306.658
531.241	312.283
531.369	315.967
531.497	308.642
531.625	311.017
531.753	307.925
531.881	311.767
532.010	315.242
532.138	310.367
532.266	305.650
532.394	308.167
532.522	307.025
532.650	311.058
532.778	312.500
532.906	310.533
533.035	311.958
533.163	310.400
533.291	308.000
533.419	309.617
533.547	309.817
533.675	310.525
533.803	306.958
533.931	306.533
534.060	310.942
534.188	313.758
534.316	311.733
534.444	305.992
534.572	311.883
534.700	309.825
534.828	312.317
534.956	310.300
535.085	312.992
535.213	311.725
535.341	311.108
535.469	310.817
535.597	315.175
535.725	318.417
535.853	314.467
535.981	315.142
536.110	319.317
536.238	317.842
536.366	318.850
536.494	316.092
536.622	321.775
536.750	318.158
536.878	321.392
537.006	322.425
537.135	322.192
537.263	319.908
537.391	325.817
537.519	322.458
537.647	326.350
537.775	323.450
537.903	327.417
538.031	321.750
538.160	323.400
538.288	327.017
538.416	327.092
538.544	323.858
538.672	329.567
538.800	326.267
538.928	327.608
539.056	333.217
539.185	328.717
539.313	334.017
539.441	328.408
539.569	330.617
539.697	329.133
539.825	330.217
539.953	328.617
540.081	329.750
540.210	332.508
540.338	328.800
540.466	332.975
540.594	328.700
540.722	333.175
540.850	334.375
540.978	330.000
541.106	328.875
541.235	333.317
541.363	330.342
541.491	330.358
541.619	328.567
541.747	328.250
541.875	329.558
542.003	327.967
542.131	328.058
542.260	334.700
542.388	328.792
542.516	333.300
542.644	332.933
542.772	331.908
542.900	333.050
543.028	331.633
543.156	333.467
543.285	333.675
543.413	332.108
543.541	334.725
543.669	333.783
543.797	335.942
543.925	332.850
544.053	338.958
544.181	334.517
544.310	331.908
544.438	331.808
544.566	334.075
544.694	336.592
544.822	329.850
544.950	333.775
545.078	335.433
545.206	336.808
545.335	332.875
545.463	335.233
545.591	336.683
545.719	338.167
545.847	335.925
545.975	335.975
546.103	336.200
546.231	339.758
546.360	337.425
546.488	339.358
546.616	340.242
546.744	340.467
546.872	336.000
547.000	341.675
547.128	343.700
547.256	338.917
547.385	340.717
547.513	339.683
547.641	337.525
547.769	344.708
547.897	340.242
548.025	341.050
548.153	344.258
548.281	341.975
548.410	345.158
548.538	344.033
548.666	344.717
548.794	342.650
548.922	344.067
549.050	342.750
549.178	344.575
549.306	345.733
549.435	346.242
549.563	346.208
549.691	344.542
549.819	349.133
549.947	349.217
550.075	346.450
550.203	343.108
550.331	346.192
550.460	346.450
550.588	344.192
550.716	346.183
550.844	342.975
550.972	342.567
551.100	345.000
551.228	347.017
551.356	345.275
551.485	342.975
551.613	346.092
551.741	345.467
551.869	342.092
551.997	343.408
552.125	340.658
552.253	341.208
552.381	343.142
552.510	343.867
552.638	339.392
552.766	341.333
552.894	338.675
553.022	339.542
553.150	337.983
553.278	343.675
553.406	339.350
553.535	338.642
553.663	343.100
553.791	336.817
553.919	337.967
554.047	342.100
554.175	339.325
554.303	340.883
554.431	338.800
554.560	338.050
554.688	343.133
554.816	337.850
554.944	337.117
555.072	341.108
555.200	340.508
555.328	340.967
555.456	341.183
555.585	343.625
555.713	341.950
555.841	344.683
555.969	339.442
556.097	343.692
556.225	345.275
556.353	350.358
556.481	340.242
556.610	348.458
556.738	345.733
556.866	345.250
556.994	341.925
557.122	346.450
557.250	348.708
557.378	347.917
557.506	345.642
557.635	347.000
557.763	346.600
557.891	352.267
558.019	350.375
558.147	350.983
558.275	346.825
558.403	354.425
558.531	346.075
558.660	352.683
558.788	350.558
558.916	347.542
559.044	347.208
559.172	351.000
559.300	357.875
559.428	353.425
559.556	350.192
559.685	348.233
559.813	351.442
559.941	349.067
560.069	355.067
560.197	355.450
560.325	357.267
560.453	353.017
560.581	353.625
560.710	352.133
560.838	355.808
560.966	352.742
561.094	352.175
561.222	352.192
561.350	353.325
561.478	354.017
561.606	355.083
561.735	353.117
561.863	351.842
561.991	352.583
562.119	346.275
562.247	353.525
562.375	353.392
562.503	350.792
562.631	351.925
562.760	352.483
562.888	356.658
563.016	351.992
563.144	353.783
563.272	351.442
563.400	349.625
563.528	348.558
563.656	349.433
563.785	349.042
563.913	351.733
564.041	351.767
564.169	350.158
564.297	350.883
564.425	349.225
564.553	354.150
564.681	352.100
564.810	349.392
564.938	348.392
565.066	351.642
565.194	351.033
565.322	354.392
565.450	349.225
565.578	357.292
565.706	352.275
565.835	350.317
565.963	354.267
566.091	348.825
566.219	354.608
566.347	354.717
566.475	357.158
566.603	355.525
566.731	353.292
566.860	357.217
566.988	352.592
567.116	356.950
567.244	359.033
567.372	358.233
567.500	361.742
567.628	359.417
567.756	363.858
567.885	363.175
568.013	356.017
568.141	358.742
568.269	361.767
568.397	360.167
568.525	362.558
568.653	364.708
568.781	368.900
568.910	366.542
569.038	366.442
569.166	365.817
569.294	364.492
569.422	368.142
569.550	368.908
569.678	370.225
569.806	369.225
569.935	370.525
570.063	373.992
570.191	370.967
570.319	372.533
570.447	374.133
570.575	367.608
570.703	373.883
570.831	370.883
570.960	380.750
571.088	376.117
571.216	373.025
571.344	374.858
571.472	377.333
571.600	376.575
571.728	373.975
571.856	376.375
571.985	377.708
572.113	378.317
572.241	376.775
572.369	383.675
572.497	375.892
572.625	385.033
572.753	379.517
572.881	381.800
573.010	384.992
573.138	383.100
573.266	382.367
573.394	383.592
573.522	386.633
573.650	385.767
573.778	383.825
573.906	383.967
574.035	385.000
574.163	386.292
574.291	381.642
574.419	386.192
574.547	386.975
574.675	386.583
574.803	393.142
574.931	384.358
575.060	393.067
575.188	388.017
575.316	382.750
575.444	388.792
575.572	392.575
575.700	383.883
575.828	388.658
575.956	386.475
576.085	384.700
576.213	389.425
576.341	384.900
576.469	385.550
576.597	383.583
576.725	386.425
576.853	387.567
576.981	386.542
577.110	384.808
577.238	388.050
577.366	383.442
577.494	383.692
577.622	387.050
577.750	385.592
577.878	381.300
578.006	385.450
578.135	385.775
578.263	385.592
578.391	385.125
578.519	382.242
578.647	386.308
578.775	386.242
578.903	385.367
579.031	389.683
579.160	388.617
579.288	381.908
579.416	383.667
579.544	383.558
579.672	383.817
579.800	379.208
579.928	379.625
580.056	382.150
580.185	386.783
580.313	385.025
580.441	384.050
580.569	385.392
580.697	384.583
580.825	385.083
580.953	383.592
581.081	385.175
581.210	389.192
581.338	388.142
581.466	389.017
581.594	387.467
581.722	388.800
581.850	389.825
581.978	388.308
582.106	388.475
582.235	387.950
582.363	384.958
582.491	394.983
582.619	393.408
582.747	396.825
582.875	394.717
583.003	396.450
583.131	394.500
583.260	400.842
583.388	399.875
583.516	395.583
583.644	395.800
583.772	403.775
583.900	402.725
584.028	402.750
584.156	403.008
584.285	404.942
584.413	404.550
584.541	405.333
584.669	406.050
584.797	405.758
584.925	407.158
585.053	407.692
585.181	412.975
585.310	411.433
585.438	410.217
585.566	411.850
585.694	414.783
585.822	416.250
585.950	415.642
586.078	416.908
586.206	422.008
586.335	421.892
586.463	419.325
586.591	422.125
586.719	418.000
586.847	419.233
586.975	423.217
587.103	422.992
587.231	415.642
587.360	425.050
587.488	426.842
587.616	430.008
587.744	433.108
587.872	425.983
588.000	425.258
588.128	432.817
588.256	432.917
588.385	426.983
588.513	424.725
588.641	429.233
588.769	432.367
588.897	428.650
589.025	428.675
589.153	433.650
589.281	429.317
589.410	430.333
589.538	434.317
589.666	431.067
589.794	433.400
589.922	434.533
590.050	428.225
590.178	428.267
590.306	432.383
590.435	432.592
590.563	429.800
590.691	438.408
590.819	434.442
590.947	438.383
591.075	436.783
591.203	438.783
591.331	436.675
591.460	435.092
591.588	437.242
591.716	439.650
591.844	442.342
591.972	437.050
592.100	432.583
592.228	440.850
592.356	442.467
592.485	440.225
592.613	435.667
592.741	439.358
592.869	440.392
592.997	440.725
593.125	444.100
593.253	442.900
593.381	439.367
593.510	450.833
593.638	447.075
593.766	443.192
593.894	445.750
594.022	446.917
594.150	442.117
594.278	452.025
594.406	445.608
594.535	450.592
594.663	453.833
594.791	456.000
594.919	450.808
595.047	460.233
595.175	449.883
595.303	453.800
595.431	455.508
595.560	457.242
595.688	455.233
595.816	456.275
595.944	458.375
596.072	460.333
596.200	462.583
596.328	463.308
596.456	464.917
596.585	459.275
596.713	465.758
596.841	466.192
596.969	463.617
597.097	462.100
597.225	469.933
597.353	465.017
597.481	465.617
597.610	473.783
597.738	471.325
597.866	475.925
597.994	473.517
598.122	471.692
598.250	470.917
598.378	474.958
598.506	475.800
598.635	473.525
598.763	476.658
598.891	478.442
599.019	481.417
599.147	475.392
599.275	475.108
599.403	481.708
599.531	478.817
599.660	485.075
599.788	485.233
599.916	485.592
600.044	489.125
600.172	486.325
600.300	487.925
600.428	487.092
600.556	489.425
600.685	489.025
600.813	490.883
600.941	490.342
601.069	488.967
601.197	495.300
601.325	496.467
601.453	493.942
601.581	498.600
601.710	499.642
601.838	503.508
601.966	500.925
602.094	501.242
602.222	505.617
602.350	503.625
602.478	502.917
602.606	508.142
602.735	505.125
602.863	512.150
602.991	507.517
603.119	514.225
603.247	512.675
603.375	514.083
603.503	512.308
603.631	515.517
603.760	516.008
603.888	517.175
604.016	514.975
604.144	518.625
604.272	520.875
604.400	521.325
604.528	523.850
604.656	529.358
604.785	521.067
604.913	533.817
605.041	532.008
605.169	536.617
605.297	534.058
605.425	537.883
605.553	533.550
605.681	533.442
605.810	534.933
605.938	537.108
606.066	534.367
606.194	537.142
606.322	541.208
606.450	544.542
606.578	546.808
606.706	544.483
606.835	542.808
606.963	550.258
607.091	541.392
607.219	548.908
607.347	544.958
607.475	551.775
607.603	550.475
607.731	550.917
607.860	546.433
607.988	547.933
608.116	554.950
608.244	549.200
608.372	551.975
608.500	555.217
608.628	553.092
608.756	548.008
608.885	554.875
609.013	555.858
609.141	558.758
609.269	553.792
609.397	556.425
609.525	559.883
609.653	558.333
609.781	560.325
609.910	557.450
610.038	557.450
610.166	559.075
610.294	559.342
610.422	560.950
610.550	565.883
610.678	556.925
610.806	559.342
610.935	563.233
611.063	560.033
611.191	561.625
611.319	563.592
611.447	561.392
611.575	564.042
611.703	556.392
611.831	568.317
611.960	564.608
612.088	563.267
612.216	568.042
612.344	562.708
612.472	570.650
612.600	568.017
612.728	561.292
612.856	573.967
612.985	559.533
613.113	568.042
613.241	568.933
613.369	572.117
613.497	571.042
613.625	573.200
613.753	568.708
613.881	564.292
614.010	568.292
614.138	566.892
614.266	572.775
614.394	576.508
614.522	573.583
614.650	577.592
614.778	572.567
614.906	583.342
615.035	579.508
615.163	579.008
615.291	581.467
615.419	579.092
615.547	577.192
615.675	586.408
615.803	583.700
615.931	589.900
616.060	592.700
616.188	585.817
616.316	587.875
616.444	585.408
616.572	591.425
616.700	584.967
616.828	597.258
616.956	590.983
617.085	601.450
617.213	599.942
617.341	594.742
617.469	596.975
617.597	602.750
617.725	601.508
617.853	602.133
617.981	598.925
618.110	605.508
618.238	606.717
618.366	615.267
618.494	612.508
618.622	616.883
618.750	609.583
618.878	609.667
619.006	616.783
619.135	624.708
619.263	617.967
619.391	617.708
619.519	619.950
619.647	625.117
619.775	623.083
619.903	630.100
620.031	628.008
620.160	631.025
620.288	625.100
620.416	638.833
620.544	639.908
620.672	642.683
620.800	641.283
620.928	647.083
621.056	641.350
621.185	644.475
621.313	647.908
621.441	649.192
621.569	657.633
621.697	651.500
621.825	656.325
621.953	661.933
622.081	661.050
622.210	654.542
622.338	658.775
622.466	660.800
622.594	659.575
622.722	665.200
622.850	666.658
622.978	661.167
623.106	666.042
623.235	675.058
623.363	670.633
623.491	669.558
623.619	664.358
623.747	675.667
623.875	671.667
624.003	672.075
624.131	671.492
624.260	669.667
624.388	676.092
624.516	685.850
624.644	672.175
624.772	681.175
624.900	684.258
625.028	684.942
625.156	688.400
625.285	680.325
625.413	686.992
625.541	688.350
625.669	688.150
625.797	685.075
625.925	687.683
626.053	690.608
626.181	701.175
626.310	690.867
626.438	691.525
626.566	690.092
626.694	691.442
626.822	695.992
626.950	703.475
627.078	703.092
627.206	698.642
627.335	702.408
627.463	699.350
627.591	703.825
627.719	698.792
627.847	710.500
627.975	708.208
628.103	709.792
628.231	705.592
628.360	703.433
628.488	713.392
628.616	709.333
628.744	705.000
628.872	706.308
629.000	706.167
629.128	714.833
629.256	717.842
629.385	722.483
629.513	709.492
629.641	720.792
629.769	715.708
629.897	717.317
630.025	717.158
630.153	723.017
630.281	723.142
630.410	719.017
630.538	732.358
630.666	716.242
630.794	721.058
630.922	723.517
631.050	726.950
631.178	724.167
631.306	723.758
631.435	723.475
631.563	737.850
631.691	723.975
631.819	728.000
631.947	736.050
632.075	729.633
632.203	733.350
632.331	735.625
632.460	728.058
632.588	730.967
632.716	740.700
632.844	734.250
632.972	739.408
633.100	741.433
633.228	739.075
633.356	739.558
633.485	743.558
633.613	750.092
633.741	741.133
633.869	745.333
633.997	740.467
634.125	741.342
634.253	737.333
634.381	745.017
634.510	745.500
634.638	736.283
634.766	749.167
634.894	738.467
635.022	745.708
635.150	745.358
635.278	762.775
635.406	752.367
635.535	750.517
635.663	758.758
635.791	752.300
635.919	760.350
636.047	755.208
636.175	750.567
636.303	755.067
636.431	758.508
636.560	760.508
636.688	763.250
636.816	758.775
636.944	760.708
637.072	761.900
637.200	761.275
637.328	761.083
637.456	764.708
637.585	762.750
637.713	766.100
637.841	765.608
637.969	765.067
638.097	758.283
638.225	768.842
638.353	774.133
638.481	778.250
638.610	774.308
638.738	773.367
638.866	769.367
638.994	769.225
639.122	777.992
639.250	786.333
639.378	781.817
639.506	776.308
639.635	784.742
639.763	777.642
639.891	782.775
640.019	788.408
640.147	785.467
640.275	785.525
640.403	786.408
640.531	781.392
640.660	785.200
640.788	794.742
640.916	787.500
641.044	807.375
641.172	796.700
641.300	793.833
641.428	800.750
641.556	795.192
641.685	798.100
641.813	798.825
641.941	800.492
642.069	807.158
642.197	801.675
642.325	804.092
642.453	811.467
642.581	811.025
642.710	802.650
642.838	811.958
642.966	814.617
643.094	811.283
643.222	814.108
643.350	817.775
643.478	823.758
643.606	823.325
643.735	825.758
643.863	815.667
643.991	829.575
644.119	819.192
644.247	824.708
644.375	826.233
644.503	835.242
644.631	836.583
644.760	839.683
644.888	841.250
645.016	836.700
645.144	846.567
645.272	838.933
645.400	842.917
645.528	841.917
645.656	831.950
645.785	841.783
645.913	841.808
646.041	850.325
646.169	834.867
646.297	845.383
646.425	841.742
646.553	838.050
646.681	851.125
646.810	840.358
646.938	848.908
647.066	842.283
647.194	844.150
647.322	850.733
647.450	840.408
647.578	856.975
647.706	848.875
647.835	850.375
647.963	851.150
648.091	860.292
648.219	848.892
648.347	857.525
648.475	854.217
648.603	852.767
648.731	854.517
648.860	842.492
648.988	851.908
649.116	856.400
649.244	842.142
649.372	847.467
649.500	850.392
649.628	852.392
649.756	842.567
649.885	841.783
650.013	849.817
650.141	847.617
650.269	844.108
650.397	843.717
650.525	844.483
650.653	847.150
650.781	842.517
650.910	839.625
651.038	842.900
651.166	842.317
651.294	840.908
651.422	834.883
651.550	835.325
651.678	829.033
651.806	840.533
651.935	835.225
652.063	831.633
652.191	825.300
652.319	834.250
652.447	830.225
652.575	830.583
652.703	832.358
652.831	827.842
652.960	827.433
653.088	826.850
653.216	817.725
653.344	826.100
653.472	827.600
653.600	825.408
653.728	829.075
653.856	817.625
653.985	835.167
654.113	828.292
654.241	831.750
654.369	824.708
654.497	830.900
654.625	827.892
654.753	828.325
654.881	826.008
655.010	813.600
655.138	821.800
655.266	820.558
655.394	815.383
655.522	819.642
655.650	809.517
655.778	822.542
655.906	821.992
656.035	825.542
656.163	818.458
656.291	820.975
656.419	828.942
656.547	820.617
656.675	820.050
656.803	818.025
656.931	820.625
657.060	825.008
657.188	831.200
657.316	825.433
657.444	826.717
657.572	826.858
657.700	825.450
657.828	827.942
657.956	826.025
658.085	838.333
658.213	824.675
658.341	823.900
658.469	823.925
658.597	831.242
658.725	830.225
658.853	818.683
658.981	821.375
659.110	827.458
659.238	826.717
659.366	826.692
659.494	822.750
659.622	822.367
659.750	829.083
659.878	823.958
660.006	830.308
660.135	827.300
660.263	830.517
660.391	820.942
660.519	830.075
660.647	824.642
660.775	834.483
660.903	834.658
661.031	826.000
661.160	823.467
661.288	826.967
661.416	832.792
661.544	819.592
661.672	823.258
661.800	823.150
661.928	827.108
662.056	828.158
662.185	829.117
662.313	822.092
662.441	830.800
662.569	830.258
662.697	823.967
662.825	823.900
662.953	827.975
663.081	821.717
663.210	821.258
663.338	832.750
663.466	826.142
663.594	825.075
663.722	817.683
663.850	814.217
663.978	814.200
664.106	821.500
664.235	827.825
664.363	829.767
664.491	820.642
664.619	827.375
664.747	824.775
664.875	817.583
665.003	817.175
