Lampe_Signal_unpol_at_679.99nm_cut_at_1286.00Y_01.dat
24.01.2024
11:22:10
cut middle at Y: 1286.00
top cursor: 1345 down cursor: 1227 mean of: 118 lines , 2560 datapoints
wavelength(nm)	intensity[arb. units]
515.994	928.390
516.122	869.373
516.250	852.398
516.378	848.636
516.506	854.161
516.635	859.593
516.763	864.678
516.891	865.712
517.019	862.331
517.147	863.076
517.275	863.941
517.403	870.534
517.531	860.102
517.660	867.059
517.788	865.237
517.916	868.076
518.044	858.746
518.172	869.525
518.300	871.415
518.428	861.763
518.556	880.229
518.685	875.458
518.813	870.508
518.941	876.390
519.069	875.983
519.197	873.475
519.325	878.924
519.453	870.051
519.581	888.271
519.710	884.229
519.838	886.288
519.966	893.593
520.094	891.305
520.222	891.831
520.350	900.602
520.478	902.525
520.606	896.297
520.735	900.797
520.863	908.381
520.991	918.992
521.119	916.653
521.247	916.407
521.375	923.220
521.503	920.466
521.631	922.314
521.760	927.441
521.888	935.347
522.016	931.314
522.144	930.907
522.272	931.797
522.400	938.356
522.528	945.814
522.656	941.076
522.785	955.254
522.913	949.110
523.041	943.907
523.169	942.288
523.297	950.093
523.425	954.593
523.553	946.746
523.681	953.042
523.810	959.254
523.938	956.525
524.066	951.102
524.194	959.042
524.322	964.246
524.450	956.407
524.578	952.475
524.706	962.610
524.835	948.102
524.963	961.220
525.091	952.568
525.219	961.136
525.347	948.703
525.475	956.780
525.603	958.831
525.731	957.636
525.860	957.381
525.988	945.805
526.116	951.220
526.244	960.339
526.372	953.610
526.500	960.805
526.628	963.754
526.756	953.288
526.885	959.398
527.013	962.093
527.141	962.915
527.269	960.915
527.397	960.703
527.525	969.924
527.653	962.627
527.781	954.661
527.910	974.415
528.038	971.610
528.166	969.797
528.294	975.576
528.422	969.483
528.550	978.322
528.678	971.839
528.806	984.856
528.935	990.271
529.063	985.297
529.191	980.924
529.319	990.703
529.447	994.220
529.575	990.373
529.703	986.178
529.831	1002.839
529.960	993.288
530.088	990.881
530.216	1004.686
530.344	995.407
530.472	991.585
530.600	997.703
530.728	1003.432
530.856	1001.754
530.985	1008.525
531.113	994.254
531.241	1013.653
531.369	1012.025
531.497	1003.864
531.625	1007.263
531.753	1002.153
531.881	1013.093
532.010	1007.110
532.138	998.297
532.266	1006.763
532.394	1009.178
532.522	1005.237
532.650	1004.661
532.778	1009.788
532.906	1002.627
533.035	1010.483
533.163	997.678
533.291	995.364
533.419	990.712
533.547	1003.636
533.675	994.424
533.803	997.195
533.931	1006.271
534.060	996.644
534.188	1004.458
534.316	1004.873
534.444	1001.085
534.572	999.941
534.700	1006.339
534.828	998.051
534.956	1013.415
535.085	1009.669
535.213	1012.322
535.341	1010.008
535.469	1005.263
535.597	1013.619
535.725	1015.669
535.853	1023.000
535.981	1019.178
536.110	1026.975
536.238	1033.788
536.366	1035.093
536.494	1024.161
536.622	1034.381
536.750	1029.619
536.878	1040.432
537.006	1045.110
537.135	1047.136
537.263	1048.322
537.391	1044.441
537.519	1043.102
537.647	1057.534
537.775	1052.788
537.903	1057.669
538.031	1057.864
538.160	1052.475
538.288	1059.500
538.416	1058.364
538.544	1048.966
538.672	1054.212
538.800	1066.864
538.928	1070.424
539.056	1068.881
539.185	1073.907
539.313	1061.288
539.441	1064.042
539.569	1066.195
539.697	1076.593
539.825	1081.110
539.953	1076.085
540.081	1052.390
540.210	1076.034
540.338	1069.314
540.466	1085.280
540.594	1069.593
540.722	1062.831
540.850	1071.814
540.978	1072.636
541.106	1075.975
541.235	1078.229
541.363	1073.780
541.491	1069.966
541.619	1068.229
541.747	1072.466
541.875	1071.161
542.003	1076.864
542.131	1080.347
542.260	1069.373
542.388	1074.169
542.516	1072.059
542.644	1082.093
542.772	1075.212
542.900	1074.847
543.028	1075.017
543.156	1075.992
543.285	1086.729
543.413	1075.703
543.541	1075.407
543.669	1076.110
543.797	1085.347
543.925	1078.822
544.053	1090.771
544.181	1085.246
544.310	1073.924
544.438	1080.534
544.566	1083.941
544.694	1090.517
544.822	1075.932
544.950	1082.915
545.078	1078.347
545.206	1075.983
545.335	1084.941
545.463	1080.661
545.591	1076.449
545.719	1075.458
545.847	1076.331
545.975	1084.881
546.103	1081.703
546.231	1085.924
546.360	1084.008
546.488	1088.229
546.616	1088.873
546.744	1084.059
546.872	1077.644
547.000	1080.271
547.128	1090.907
547.256	1088.780
547.385	1077.737
547.513	1079.898
547.641	1086.085
547.769	1079.093
547.897	1092.890
548.025	1091.966
548.153	1095.144
548.281	1083.881
548.410	1083.814
548.538	1097.839
548.666	1086.788
548.794	1092.466
548.922	1087.466
549.050	1093.110
549.178	1089.958
549.306	1092.551
549.435	1098.093
549.563	1082.339
549.691	1087.746
549.819	1100.169
549.947	1095.797
550.075	1092.686
550.203	1086.636
550.331	1080.653
550.460	1091.458
550.588	1091.203
550.716	1096.703
550.844	1081.356
550.972	1083.017
551.100	1082.424
551.228	1085.907
551.356	1071.610
551.485	1083.229
551.613	1079.695
551.741	1072.585
551.869	1071.076
551.997	1064.500
552.125	1076.686
552.253	1073.254
552.381	1057.288
552.510	1063.373
552.638	1065.144
552.766	1066.381
552.894	1053.415
553.022	1057.551
553.150	1046.847
553.278	1064.788
553.406	1051.271
553.535	1048.864
553.663	1042.992
553.791	1045.525
553.919	1045.297
554.047	1050.864
554.175	1044.678
554.303	1035.110
554.431	1041.644
554.560	1045.212
554.688	1043.924
554.816	1042.619
554.944	1042.814
555.072	1043.669
555.200	1044.915
555.328	1046.881
555.456	1045.924
555.585	1046.585
555.713	1034.254
555.841	1046.364
555.969	1047.373
556.097	1047.051
556.225	1047.415
556.353	1062.508
556.481	1031.932
556.610	1050.992
556.738	1052.441
556.866	1059.331
556.994	1048.822
557.122	1045.890
557.250	1053.780
557.378	1052.051
557.506	1049.525
557.635	1051.983
557.763	1047.178
557.891	1054.661
558.019	1049.729
558.147	1052.466
558.275	1058.983
558.403	1059.831
558.531	1049.169
558.660	1046.254
558.788	1056.712
558.916	1056.949
559.044	1049.661
559.172	1045.585
559.300	1062.186
559.428	1056.771
559.556	1058.576
559.685	1052.661
559.813	1041.102
559.941	1054.466
560.069	1061.720
560.197	1047.466
560.325	1054.924
560.453	1048.983
560.581	1053.076
560.710	1043.763
560.838	1049.983
560.966	1051.712
561.094	1047.737
561.222	1037.703
561.350	1040.415
561.478	1022.517
561.606	1045.212
561.735	1038.059
561.863	1032.102
561.991	1035.610
562.119	1029.195
562.247	1039.381
562.375	1038.856
562.503	1034.805
562.631	1029.017
562.760	1026.212
562.888	1030.703
563.016	1032.508
563.144	1024.644
563.272	1017.432
563.400	1014.678
563.528	1017.585
563.656	1018.729
563.785	1018.492
563.913	1017.042
564.041	1011.915
564.169	1014.831
564.297	1010.966
564.425	1010.169
564.553	1018.161
564.681	1020.686
564.810	1009.042
564.938	1011.754
565.066	1014.797
565.194	1024.678
565.322	1013.712
565.450	1010.585
565.578	1019.975
565.706	1016.508
565.835	1022.517
565.963	1016.059
566.091	1017.822
566.219	1025.475
566.347	1013.653
566.475	1012.525
566.603	1017.534
566.731	1024.500
566.860	1021.551
566.988	1019.508
567.116	1033.763
567.244	1027.873
567.372	1031.347
567.500	1033.525
567.628	1027.788
567.756	1023.686
567.885	1039.610
568.013	1037.703
568.141	1033.186
568.269	1031.644
568.397	1031.941
568.525	1031.475
568.653	1045.585
568.781	1037.356
568.910	1046.203
569.038	1037.347
569.166	1034.924
569.294	1040.975
569.422	1054.466
569.550	1037.195
569.678	1045.220
569.806	1042.907
569.935	1044.271
570.063	1050.466
570.191	1054.263
570.319	1046.458
570.447	1049.246
570.575	1049.771
570.703	1052.703
570.831	1059.983
570.960	1050.322
571.088	1063.297
571.216	1050.186
571.344	1049.237
571.472	1051.695
571.600	1060.136
571.728	1052.085
571.856	1058.898
571.985	1055.178
572.113	1053.144
572.241	1057.008
572.369	1066.754
572.497	1058.136
572.625	1062.924
572.753	1057.161
572.881	1056.169
573.010	1067.966
573.138	1070.695
573.266	1069.424
573.394	1060.924
573.522	1060.831
573.650	1061.356
573.778	1052.695
573.906	1061.390
574.035	1056.669
574.163	1056.347
574.291	1055.322
574.419	1054.593
574.547	1064.958
574.675	1069.195
574.803	1058.390
574.931	1056.424
575.060	1069.771
575.188	1060.144
575.316	1052.839
575.444	1054.127
575.572	1059.008
575.700	1052.407
575.828	1072.415
575.956	1055.788
576.085	1051.466
576.213	1049.661
576.341	1051.449
576.469	1055.847
576.597	1046.127
576.725	1048.949
576.853	1041.297
576.981	1043.161
577.110	1041.661
577.238	1048.924
577.366	1039.347
577.494	1032.653
577.622	1039.415
577.750	1036.347
577.878	1033.839
578.006	1044.246
578.135	1025.593
578.263	1028.941
578.391	1048.059
578.519	1025.678
578.647	1032.856
578.775	1032.288
578.903	1020.958
579.031	1034.576
579.160	1023.771
579.288	1025.042
579.416	1029.771
579.544	1034.814
579.672	1031.229
579.800	1033.398
579.928	1025.958
580.056	1016.483
580.185	1023.602
580.313	1019.585
580.441	1024.220
580.569	1017.220
580.697	1018.169
580.825	1024.949
580.953	1030.076
581.081	1025.958
581.210	1030.958
581.338	1033.864
581.466	1032.763
581.594	1037.297
581.722	1020.898
581.850	1018.144
581.978	1028.966
582.106	1022.441
582.235	1033.593
582.363	1025.102
582.491	1038.305
582.619	1023.153
582.747	1030.381
582.875	1033.839
583.003	1037.542
583.131	1038.297
583.260	1040.339
583.388	1043.475
583.516	1052.034
583.644	1045.890
583.772	1053.619
583.900	1051.568
584.028	1060.610
584.156	1046.992
584.285	1055.720
584.413	1057.068
584.541	1069.280
584.669	1058.034
584.797	1055.297
584.925	1061.661
585.053	1064.593
585.181	1068.771
585.310	1068.059
585.438	1060.102
585.566	1065.102
585.694	1075.822
585.822	1081.415
585.950	1070.305
586.078	1075.737
586.206	1090.814
586.335	1080.229
586.463	1080.822
586.591	1090.000
586.719	1088.449
586.847	1085.136
586.975	1086.534
587.103	1086.983
587.231	1081.449
587.360	1084.517
587.488	1094.822
587.616	1084.576
587.744	1089.890
587.872	1083.263
588.000	1094.992
588.128	1098.771
588.256	1089.907
588.385	1091.322
588.513	1086.653
588.641	1091.305
588.769	1094.331
588.897	1075.381
589.025	1089.475
589.153	1083.373
589.281	1081.144
589.410	1096.288
589.538	1087.051
589.666	1084.763
589.794	1086.398
589.922	1095.907
590.050	1095.169
590.178	1078.975
590.306	1086.246
590.435	1082.610
590.563	1070.966
590.691	1087.542
590.819	1073.492
590.947	1092.025
591.075	1078.483
591.203	1083.373
591.331	1094.839
591.460	1086.737
591.588	1081.407
591.716	1082.153
591.844	1082.712
591.972	1085.992
592.100	1081.754
592.228	1079.178
592.356	1095.958
592.485	1080.932
592.613	1077.212
592.741	1088.161
592.869	1080.602
592.997	1079.110
593.125	1096.314
593.253	1098.941
593.381	1084.822
593.510	1092.636
593.638	1082.347
593.766	1086.771
593.894	1093.034
594.022	1093.602
594.150	1090.602
594.278	1096.619
594.406	1083.610
594.535	1096.280
594.663	1099.432
594.791	1097.229
594.919	1093.042
595.047	1099.432
595.175	1094.237
595.303	1086.992
595.431	1096.669
595.560	1107.907
595.688	1098.508
595.816	1096.068
595.944	1107.449
596.072	1114.297
596.200	1103.831
596.328	1102.305
596.456	1096.432
596.585	1107.203
596.713	1111.288
596.841	1103.119
596.969	1101.085
597.097	1103.881
597.225	1104.415
597.353	1120.983
597.481	1120.025
597.610	1116.610
597.738	1120.449
597.866	1095.059
597.994	1116.475
598.122	1122.636
598.250	1102.839
598.378	1104.924
598.506	1112.695
598.635	1104.669
598.763	1122.178
598.891	1111.237
599.019	1119.610
599.147	1107.983
599.275	1108.297
599.403	1106.686
599.531	1110.110
599.660	1118.102
599.788	1106.746
599.916	1113.619
600.044	1106.186
600.172	1120.636
600.300	1116.508
600.428	1112.432
600.556	1124.161
600.685	1115.305
600.813	1120.441
600.941	1124.907
601.069	1124.653
601.197	1131.534
601.325	1125.653
601.453	1130.102
601.581	1126.525
601.710	1135.136
601.838	1135.636
601.966	1137.364
602.094	1122.508
602.222	1123.695
602.350	1132.110
602.478	1132.966
602.606	1138.492
602.735	1132.992
602.863	1134.771
602.991	1142.915
603.119	1149.144
603.247	1137.288
603.375	1141.737
603.503	1142.500
603.631	1143.017
603.760	1145.076
603.888	1151.263
604.016	1145.280
604.144	1159.178
604.272	1154.110
604.400	1147.288
604.528	1142.873
604.656	1151.890
604.785	1154.873
604.913	1156.763
605.041	1159.398
605.169	1157.568
605.297	1151.322
605.425	1157.390
605.553	1163.466
605.681	1158.975
605.810	1164.805
605.938	1157.102
606.066	1160.119
606.194	1162.051
606.322	1155.754
606.450	1167.754
606.578	1175.602
606.706	1158.500
606.835	1168.924
606.963	1164.941
607.091	1167.314
607.219	1157.110
607.347	1164.051
607.475	1169.534
607.603	1162.822
607.731	1165.110
607.860	1165.280
607.988	1167.059
608.116	1155.839
608.244	1163.653
608.372	1161.008
608.500	1162.373
608.628	1162.415
608.756	1164.237
608.885	1158.627
609.013	1161.644
609.141	1156.161
609.269	1158.212
609.397	1161.975
609.525	1153.559
609.653	1148.229
609.781	1150.475
609.910	1152.254
610.038	1137.153
610.166	1153.246
610.294	1143.297
610.422	1154.941
610.550	1147.178
610.678	1148.780
610.806	1137.051
610.935	1139.949
611.063	1149.322
611.191	1136.263
611.319	1146.568
611.447	1133.644
611.575	1140.076
611.703	1126.059
611.831	1134.831
611.960	1134.636
612.088	1132.398
612.216	1132.110
612.344	1138.220
612.472	1133.975
612.600	1130.729
612.728	1132.373
612.856	1133.000
612.985	1129.500
613.113	1126.788
613.241	1136.534
613.369	1124.678
613.497	1135.915
613.625	1128.288
613.753	1123.966
613.881	1127.686
614.010	1129.144
614.138	1123.119
614.266	1119.254
614.394	1129.314
614.522	1118.008
614.650	1140.754
614.778	1114.873
614.906	1141.195
615.035	1134.246
615.163	1119.144
615.291	1117.890
615.419	1129.483
615.547	1124.932
615.675	1125.856
615.803	1124.390
615.931	1135.788
616.060	1135.602
616.188	1125.805
616.316	1109.797
616.444	1114.517
616.572	1115.763
616.700	1127.534
616.828	1124.983
616.956	1132.271
617.085	1141.237
617.213	1129.161
617.341	1127.847
617.469	1126.576
617.597	1133.958
617.725	1139.873
617.853	1119.449
617.981	1128.847
618.110	1147.119
618.238	1135.492
618.366	1152.746
618.494	1141.085
618.622	1137.576
618.750	1140.051
618.878	1137.271
619.006	1133.525
619.135	1141.864
619.263	1148.992
619.391	1136.415
619.519	1138.576
619.647	1150.992
619.775	1143.144
619.903	1146.017
620.031	1149.551
620.160	1144.619
620.288	1147.449
620.416	1155.314
620.544	1159.449
620.672	1155.780
620.800	1148.568
620.928	1157.669
621.056	1153.136
621.185	1149.364
621.313	1148.932
621.441	1165.432
621.569	1164.271
621.697	1162.975
621.825	1167.449
621.953	1162.059
622.081	1165.220
622.210	1149.017
622.338	1159.839
622.466	1155.297
622.594	1166.898
622.722	1167.025
622.850	1164.034
622.978	1167.356
623.106	1163.127
623.235	1162.483
623.363	1158.568
623.491	1154.890
623.619	1155.746
623.747	1159.034
623.875	1159.839
624.003	1153.051
624.131	1153.703
624.260	1145.034
624.388	1159.076
624.516	1163.331
624.644	1151.517
624.772	1158.508
624.900	1160.110
625.028	1147.195
625.156	1169.153
625.285	1149.424
625.413	1155.297
625.541	1157.254
625.669	1146.034
625.797	1141.958
625.925	1142.737
626.053	1146.669
626.181	1156.076
626.310	1142.712
626.438	1138.339
626.566	1142.924
626.694	1138.424
626.822	1139.059
626.950	1149.932
627.078	1147.534
627.206	1134.186
627.335	1145.153
627.463	1135.458
627.591	1139.500
627.719	1136.263
627.847	1139.093
627.975	1139.364
628.103	1134.407
628.231	1134.068
628.360	1128.441
628.488	1138.331
628.616	1145.508
628.744	1123.288
628.872	1124.458
629.000	1133.458
629.128	1132.466
629.256	1145.237
629.385	1135.534
629.513	1118.678
629.641	1140.500
629.769	1117.517
629.897	1136.669
630.025	1130.890
630.153	1130.847
630.281	1130.169
630.410	1127.017
630.538	1133.458
630.666	1126.831
630.794	1116.364
630.922	1119.720
631.050	1121.263
631.178	1117.839
631.306	1118.203
631.435	1119.432
631.563	1119.881
631.691	1111.424
631.819	1114.856
631.947	1125.737
632.075	1115.737
632.203	1118.559
632.331	1118.398
632.460	1102.237
632.588	1117.788
632.716	1117.771
632.844	1115.653
632.972	1109.814
633.100	1119.195
633.228	1109.822
633.356	1110.153
633.485	1110.737
633.613	1113.076
633.741	1107.398
633.869	1106.525
633.997	1101.737
634.125	1108.051
634.253	1092.678
634.381	1095.288
634.510	1103.246
634.638	1088.331
634.766	1093.237
634.894	1094.280
635.022	1088.941
635.150	1087.280
635.278	1097.619
635.406	1094.475
635.535	1080.246
635.663	1088.788
635.791	1087.458
635.919	1093.788
636.047	1081.915
636.175	1074.068
636.303	1085.263
636.431	1087.636
636.560	1083.873
636.688	1082.466
636.816	1084.678
636.944	1073.347
637.072	1089.280
637.200	1070.110
637.328	1072.712
637.456	1079.424
637.585	1071.873
637.713	1072.949
637.841	1074.898
637.969	1071.754
638.097	1061.822
638.225	1069.754
638.353	1071.805
638.481	1076.449
638.610	1064.864
638.738	1071.203
638.866	1057.093
638.994	1059.551
639.122	1065.271
639.250	1065.305
639.378	1055.246
639.506	1054.254
639.635	1075.254
639.763	1060.559
639.891	1063.356
640.019	1057.729
640.147	1065.703
640.275	1054.500
640.403	1053.847
640.531	1056.127
640.660	1053.076
640.788	1066.720
640.916	1050.847
641.044	1066.661
641.172	1052.127
641.300	1056.212
641.428	1061.153
641.556	1065.729
641.685	1052.881
641.813	1047.805
641.941	1059.415
642.069	1055.432
642.197	1054.305
642.325	1048.975
642.453	1051.237
642.581	1059.720
642.710	1043.754
642.838	1052.169
642.966	1046.025
643.094	1047.737
643.222	1043.551
643.350	1050.695
643.478	1048.754
643.606	1047.263
643.735	1049.432
643.863	1033.390
643.991	1054.280
644.119	1042.814
644.247	1046.042
644.375	1040.881
644.503	1045.364
644.631	1048.246
644.760	1048.297
644.888	1045.576
645.016	1046.992
645.144	1048.322
645.272	1029.602
645.400	1038.364
645.528	1036.263
645.656	1023.441
645.785	1038.695
645.913	1033.890
646.041	1036.780
646.169	1022.127
646.297	1023.314
646.425	1021.246
646.553	1010.653
646.681	1019.636
646.810	1019.500
646.938	1026.703
647.066	1016.042
647.194	1009.390
647.322	1008.449
647.450	1012.093
647.578	1021.483
647.706	1008.407
647.835	1018.890
647.963	1008.203
648.091	1011.890
648.219	997.983
648.347	1000.847
648.475	1004.059
648.603	996.144
648.731	995.322
648.860	987.085
648.988	999.373
649.116	994.678
649.244	978.025
649.372	978.839
649.500	976.678
649.628	985.314
649.756	983.263
649.885	971.712
650.013	974.085
650.141	962.729
650.269	959.975
650.397	963.542
650.525	963.407
650.653	957.483
650.781	955.508
650.910	945.881
651.038	943.941
651.166	941.483
651.294	936.136
651.422	926.212
651.550	918.051
651.678	922.000
651.806	927.542
651.935	934.314
652.063	917.568
652.191	915.534
652.319	926.212
652.447	922.263
652.575	922.983
652.703	907.898
652.831	915.364
652.960	907.314
653.088	907.093
653.216	905.873
653.344	904.754
653.472	904.720
653.600	906.551
653.728	897.017
653.856	885.415
653.985	896.263
654.113	894.576
654.241	893.331
654.369	892.203
654.497	888.356
654.625	891.619
654.753	889.780
654.881	891.669
655.010	890.500
655.138	872.186
655.266	880.483
655.394	876.288
655.522	877.949
655.650	860.644
655.778	869.814
655.906	873.568
656.035	865.127
656.163	865.593
656.291	856.771
656.419	870.466
656.547	869.203
656.675	863.415
656.803	861.720
656.931	865.551
657.060	855.559
657.188	860.051
657.316	855.305
657.444	851.110
657.572	856.551
657.700	852.949
657.828	854.085
657.956	849.034
658.085	857.314
