Lampe_Signal_90_at_679.99nm_cut_at_1286.00Y_01.dat
24.01.2024
11:22:37
cut middle at Y: 1286.00
top cursor: 1345 down cursor: 1227 mean of: 118 lines , 2560 datapoints
wavelength(nm)	intensity[arb. units]
515.994	379.847
516.122	360.551
516.250	354.602
516.378	349.788
516.506	351.161
516.635	352.619
516.763	353.551
516.891	355.619
517.019	359.297
517.147	353.873
517.275	355.085
517.403	352.788
517.531	355.831
517.660	356.085
517.788	351.000
517.916	360.110
518.044	353.737
518.172	354.941
518.300	349.847
518.428	357.127
518.556	352.364
518.685	353.025
518.813	355.102
518.941	354.941
519.069	360.525
519.197	358.373
519.325	361.449
519.453	357.475
519.581	360.458
519.710	355.483
519.838	361.458
519.966	356.500
520.094	363.517
520.222	361.068
520.350	364.127
520.478	365.737
520.606	361.508
520.735	364.144
520.863	367.839
520.991	369.508
521.119	362.008
521.247	372.568
521.375	370.178
521.503	370.763
521.631	369.356
521.760	370.873
521.888	371.398
522.016	374.932
522.144	374.907
522.272	372.898
522.400	374.831
522.528	377.492
522.656	375.407
522.785	377.636
522.913	377.559
523.041	376.076
523.169	375.839
523.297	374.508
523.425	380.678
523.553	380.153
523.681	374.992
523.810	381.847
523.938	382.644
524.066	377.788
524.194	378.729
524.322	382.119
524.450	373.178
524.578	376.653
524.706	382.915
524.835	376.797
524.963	382.093
525.091	377.771
525.219	376.390
525.347	373.669
525.475	377.661
525.603	382.780
525.731	375.500
525.860	379.110
525.988	375.669
526.116	375.941
526.244	379.475
526.372	374.568
526.500	379.661
526.628	380.695
526.756	379.636
526.885	380.559
527.013	377.585
527.141	382.102
527.269	378.297
527.397	384.076
527.525	382.271
527.653	378.644
527.781	377.102
527.910	385.703
528.038	388.059
528.166	381.890
528.294	376.975
528.422	383.500
528.550	385.000
528.678	383.144
528.806	386.780
528.935	388.449
529.063	385.551
529.191	384.034
529.319	387.076
529.447	388.678
529.575	389.551
529.703	386.932
529.831	388.153
529.960	390.195
530.088	392.407
530.216	391.246
530.344	386.669
530.472	393.839
530.600	395.542
530.728	389.153
530.856	396.983
530.985	398.729
531.113	392.814
531.241	395.653
531.369	393.237
531.497	398.508
531.625	394.856
531.753	391.220
531.881	397.322
532.010	395.873
532.138	393.873
532.266	391.042
532.394	393.017
532.522	390.119
532.650	394.169
532.778	398.339
532.906	395.271
533.035	395.059
533.163	391.051
533.291	396.559
533.419	397.814
533.547	398.034
533.675	392.161
533.803	394.958
533.931	392.907
534.060	391.246
534.188	396.305
534.316	394.568
534.444	395.449
534.572	398.339
534.700	391.958
534.828	395.856
534.956	397.822
535.085	391.898
535.213	399.000
535.341	392.831
535.469	394.119
535.597	396.220
535.725	396.508
535.853	396.949
535.981	397.381
536.110	402.161
536.238	399.568
536.366	403.153
536.494	398.797
536.622	407.153
536.750	398.763
536.878	402.407
537.006	403.364
537.135	403.017
537.263	403.186
537.391	408.975
537.519	405.831
537.647	405.780
537.775	402.008
537.903	407.805
538.031	405.949
538.160	404.788
538.288	409.331
538.416	407.678
538.544	411.093
538.672	407.339
538.800	407.669
538.928	411.398
539.056	412.322
539.185	410.475
539.313	407.280
539.441	412.669
539.569	412.771
539.697	410.542
539.825	413.119
539.953	405.941
540.081	405.212
540.210	413.161
540.338	413.220
540.466	412.593
540.594	412.508
540.722	407.364
540.850	413.907
540.978	408.407
541.106	413.881
541.235	414.695
541.363	408.814
541.491	409.610
541.619	411.661
541.747	408.102
541.875	410.610
542.003	408.407
542.131	406.483
542.260	412.237
542.388	409.822
542.516	413.720
542.644	415.737
542.772	410.297
542.900	411.653
543.028	409.644
543.156	406.195
543.285	409.203
543.413	411.297
543.541	409.212
543.669	410.110
543.797	410.119
543.925	412.831
544.053	408.449
544.181	411.593
544.310	410.483
544.438	411.347
544.566	412.263
544.694	410.610
544.822	410.992
544.950	414.797
545.078	414.559
545.206	411.805
545.335	413.008
545.463	413.136
545.591	415.398
545.719	415.356
545.847	413.932
545.975	410.627
546.103	412.661
546.231	411.212
546.360	414.136
546.488	417.415
546.616	418.763
546.744	418.542
546.872	412.958
547.000	416.669
547.128	412.873
547.256	417.678
547.385	413.195
547.513	416.458
547.641	417.373
547.769	421.076
547.897	413.093
548.025	421.085
548.153	417.517
548.281	417.890
548.410	417.492
548.538	419.712
548.666	415.195
548.794	413.983
548.922	414.542
549.050	421.805
549.178	415.025
549.306	423.339
549.435	425.788
549.563	416.593
549.691	411.161
549.819	421.636
549.947	418.068
550.075	414.932
550.203	420.314
550.331	419.576
550.460	419.695
550.588	417.051
550.716	421.729
550.844	419.780
550.972	415.797
551.100	409.602
551.228	415.025
551.356	411.144
551.485	411.441
551.613	414.229
551.741	403.373
551.869	407.322
551.997	410.686
552.125	411.424
552.253	409.907
552.381	407.475
552.510	403.381
552.638	407.127
552.766	405.949
552.894	405.415
553.022	405.220
553.150	404.025
553.278	405.881
553.406	404.119
553.535	402.398
553.663	399.627
553.791	397.220
553.919	402.008
554.047	404.517
554.175	401.051
554.303	398.144
554.431	397.958
554.560	396.729
554.688	404.314
554.816	403.051
554.944	401.551
555.072	403.390
555.200	402.831
555.328	400.449
555.456	401.898
555.585	401.229
555.713	402.068
555.841	403.110
555.969	402.322
556.097	409.076
556.225	408.025
556.353	407.008
556.481	405.941
556.610	407.534
556.738	408.627
556.866	406.119
556.994	406.551
557.122	404.136
557.250	408.915
557.378	405.466
557.506	409.814
557.635	407.127
557.763	406.847
557.891	410.059
558.019	405.695
558.147	410.636
558.275	408.610
558.403	410.983
558.531	409.449
558.660	407.364
558.788	413.203
558.916	409.415
559.044	405.220
559.172	405.644
559.300	412.534
559.428	410.441
559.556	408.881
559.685	409.203
559.813	408.686
559.941	408.958
560.069	412.373
560.197	408.864
560.325	407.932
560.453	411.025
560.581	407.627
560.710	405.593
560.838	410.076
560.966	407.068
561.094	407.364
561.222	407.364
561.350	402.737
561.478	401.873
561.606	407.703
561.735	405.415
561.863	401.466
561.991	407.907
562.119	400.254
562.247	401.483
562.375	403.297
562.503	400.000
562.631	400.839
562.760	400.856
562.888	401.915
563.016	401.695
563.144	404.297
563.272	396.619
563.400	398.661
563.528	398.712
563.656	399.619
563.785	400.534
563.913	391.966
564.041	395.356
564.169	394.856
564.297	395.695
564.425	397.585
564.553	397.686
564.681	394.102
564.810	396.212
564.938	403.449
565.066	399.407
565.194	397.407
565.322	398.627
565.450	399.076
565.578	396.941
565.706	393.958
565.835	397.424
565.963	395.712
566.091	393.729
566.219	398.669
566.347	399.695
566.475	400.110
566.603	398.068
566.731	396.864
566.860	403.398
566.988	396.008
567.116	397.949
567.244	397.517
567.372	401.508
567.500	396.898
567.628	395.729
567.756	403.466
567.885	402.136
568.013	403.017
568.141	403.585
568.269	399.712
568.397	400.881
568.525	400.085
568.653	404.915
568.781	406.695
568.910	406.839
569.038	404.068
569.166	402.966
569.294	403.627
569.422	410.042
569.550	403.568
569.678	403.458
569.806	413.712
569.935	412.932
570.063	413.212
570.191	414.932
570.319	413.280
570.447	411.847
570.575	412.831
570.703	409.678
570.831	413.864
570.960	409.966
571.088	412.669
571.216	412.585
571.344	410.424
571.472	414.458
571.600	413.593
571.728	415.271
571.856	413.475
571.985	410.449
572.113	415.542
572.241	415.924
572.369	420.246
572.497	410.915
572.625	417.085
572.753	411.975
572.881	416.432
573.010	413.398
573.138	417.458
573.266	416.119
573.394	416.458
573.522	414.458
573.650	412.025
573.778	413.737
573.906	411.881
574.035	412.949
574.163	411.008
574.291	408.144
574.419	416.492
574.547	415.398
574.675	414.110
574.803	415.653
574.931	415.593
575.060	412.110
575.188	413.712
575.316	411.508
575.444	414.856
575.572	410.568
575.700	409.856
575.828	415.653
575.956	409.949
576.085	409.449
576.213	414.483
576.341	413.847
576.469	408.220
576.597	404.127
576.725	402.212
576.853	408.161
576.981	410.178
577.110	406.068
577.238	407.237
577.366	402.458
577.494	402.000
577.622	403.924
577.750	404.593
577.878	403.669
578.006	402.847
578.135	400.483
578.263	403.051
578.391	407.932
578.519	399.729
578.647	401.712
578.775	400.356
578.903	397.424
579.031	405.229
579.160	397.237
579.288	393.822
579.416	398.356
579.544	397.424
579.672	401.763
579.800	396.025
579.928	397.746
580.056	392.017
580.185	400.712
580.313	397.593
580.441	394.076
580.569	392.915
580.697	398.797
580.825	399.551
580.953	398.678
581.081	399.797
581.210	396.449
581.338	398.949
581.466	398.398
581.594	395.373
581.722	395.212
581.850	395.551
581.978	399.153
582.106	392.822
582.235	396.136
582.363	401.932
582.491	400.153
582.619	397.288
582.747	399.237
582.875	398.576
583.003	398.695
583.131	399.483
583.260	400.686
583.388	399.839
583.516	406.508
583.644	401.873
583.772	398.102
583.900	404.347
584.028	402.847
584.156	404.932
584.285	404.347
584.413	403.763
584.541	403.551
584.669	406.254
584.797	406.797
584.925	406.127
585.053	408.390
585.181	406.924
585.310	410.093
585.438	406.898
585.566	403.907
585.694	408.263
585.822	411.881
585.950	412.576
586.078	410.898
586.206	411.051
586.335	412.500
586.463	417.992
586.591	411.771
586.719	412.136
586.847	409.864
586.975	416.525
587.103	413.831
587.231	413.169
587.360	417.153
587.488	419.407
587.616	414.636
587.744	413.975
587.872	414.331
588.000	414.339
588.128	417.805
588.256	418.500
588.385	415.339
588.513	412.653
588.641	413.195
588.769	422.305
588.897	413.619
589.025	414.712
589.153	412.568
589.281	415.627
589.410	417.780
589.538	414.831
589.666	413.331
589.794	418.305
589.922	418.754
590.050	417.415
590.178	414.525
590.306	414.763
590.435	416.907
590.563	412.551
590.691	417.525
590.819	410.585
590.947	422.500
591.075	414.661
591.203	407.932
591.331	417.246
591.460	417.881
591.588	413.076
591.716	418.585
591.844	414.254
591.972	418.229
592.100	414.814
592.228	412.847
592.356	415.941
592.485	411.763
592.613	414.788
592.741	419.924
592.869	413.695
592.997	417.941
593.125	417.356
593.253	418.585
593.381	413.475
593.510	415.017
593.638	414.585
593.766	416.034
593.894	415.508
594.022	412.475
594.150	420.000
594.278	418.119
594.406	415.720
594.535	413.085
594.663	415.136
594.791	416.475
594.919	417.364
595.047	420.644
595.175	418.119
595.303	414.797
595.431	416.127
595.560	423.975
595.688	424.169
595.816	420.203
595.944	423.136
596.072	419.661
596.200	418.619
596.328	418.127
596.456	416.000
596.585	422.220
596.713	421.424
596.841	424.059
596.969	421.729
597.097	427.339
597.225	426.042
597.353	425.924
597.481	421.288
597.610	422.720
597.738	422.415
597.866	421.203
597.994	425.017
598.122	423.585
598.250	422.661
598.378	425.441
598.506	423.805
598.635	420.576
598.763	417.881
598.891	423.949
599.019	424.161
599.147	422.398
599.275	421.051
599.403	424.576
599.531	423.568
599.660	422.398
599.788	424.703
599.916	421.220
600.044	423.754
600.172	425.068
600.300	422.593
600.428	425.839
600.556	426.110
600.685	424.322
600.813	424.085
600.941	431.364
601.069	430.280
601.197	430.051
601.325	425.915
601.453	429.136
601.581	429.966
601.710	429.627
601.838	432.915
601.966	425.212
602.094	429.602
602.222	432.000
602.350	430.593
602.478	431.941
602.606	432.076
602.735	433.390
602.863	433.636
602.991	430.941
603.119	431.492
603.247	434.119
603.375	435.093
603.503	435.559
603.631	433.347
603.760	435.890
603.888	431.695
604.016	436.246
604.144	440.229
604.272	440.280
604.400	440.720
604.528	433.042
604.656	441.220
604.785	437.856
604.913	448.966
605.041	440.136
605.169	443.288
605.297	442.864
605.425	440.644
605.553	443.890
605.681	439.636
605.810	440.508
605.938	437.322
606.066	437.398
606.194	442.763
606.322	440.229
606.450	443.297
606.578	440.881
606.706	440.703
606.835	447.983
606.963	449.381
607.091	441.856
607.219	444.424
607.347	441.254
607.475	444.636
607.603	448.195
607.731	449.585
607.860	444.822
607.988	444.992
608.116	444.314
608.244	439.542
608.372	443.441
608.500	441.669
608.628	441.169
608.756	441.356
608.885	443.686
609.013	446.246
609.141	444.881
609.269	442.339
609.397	439.669
609.525	443.127
609.653	437.686
609.781	439.822
609.910	443.008
610.038	437.720
610.166	433.568
610.294	442.246
610.422	439.186
610.550	437.178
610.678	438.195
610.806	435.932
610.935	436.517
611.063	438.932
611.191	439.839
611.319	431.695
611.447	436.746
611.575	437.805
611.703	431.585
611.831	433.534
611.960	431.695
612.088	436.364
612.216	435.907
612.344	430.729
612.472	433.797
612.600	431.432
612.728	433.322
612.856	433.373
612.985	437.856
613.113	430.593
613.241	434.678
613.369	432.924
613.497	432.102
613.625	434.568
613.753	431.508
613.881	432.576
614.010	433.364
614.138	430.661
614.266	433.898
614.394	432.780
614.522	429.805
614.650	430.686
614.778	434.780
614.906	439.847
615.035	428.008
615.163	431.127
615.291	430.025
615.419	431.856
615.547	430.881
615.675	434.475
615.803	431.983
615.931	436.898
616.060	436.975
616.188	431.458
616.316	432.517
616.444	432.534
616.572	432.754
616.700	429.212
616.828	438.398
616.956	436.780
617.085	435.364
617.213	434.305
617.341	433.602
617.469	434.864
617.597	434.229
617.725	433.169
617.853	439.653
617.981	431.754
618.110	437.932
618.238	434.076
618.366	442.771
618.494	437.347
618.622	439.644
618.750	434.169
618.878	436.975
619.006	437.712
619.135	441.195
619.263	435.669
619.391	437.381
619.519	443.602
619.647	440.559
619.775	437.042
619.903	443.237
620.031	442.958
620.160	441.466
620.288	440.975
620.416	443.763
620.544	448.280
620.672	446.593
620.800	443.390
620.928	445.627
621.056	443.839
621.185	440.551
621.313	443.966
621.441	443.881
621.569	448.542
621.697	446.873
621.825	446.890
621.953	445.593
622.081	449.483
622.210	445.500
622.338	449.602
622.466	453.847
622.594	447.737
622.722	446.415
622.850	446.110
622.978	450.466
623.106	447.856
623.235	451.153
623.363	445.356
623.491	442.220
623.619	445.958
623.747	449.839
623.875	442.576
624.003	445.237
624.131	442.610
624.260	441.263
624.388	446.280
624.516	447.144
624.644	442.627
624.772	447.780
624.900	448.602
625.028	442.398
625.156	450.068
625.285	443.271
625.413	442.237
625.541	438.390
625.669	444.008
625.797	444.254
625.925	443.068
626.053	440.466
626.181	442.983
626.310	439.008
626.438	439.195
626.566	437.805
626.694	438.881
626.822	442.780
626.950	438.712
627.078	440.195
627.206	443.441
627.335	445.458
627.463	444.661
627.591	438.068
627.719	442.805
627.847	440.636
627.975	441.000
628.103	436.856
628.231	439.136
628.360	440.805
628.488	443.627
628.616	436.483
628.744	436.559
628.872	439.415
629.000	437.686
629.128	440.297
629.256	442.559
629.385	443.542
629.513	437.856
629.641	444.195
629.769	434.017
629.897	437.797
630.025	439.322
630.153	437.500
630.281	437.941
630.410	439.153
630.538	442.576
630.666	437.263
630.794	438.576
630.922	431.390
631.050	434.661
631.178	434.746
631.306	431.373
631.435	438.195
631.563	434.390
631.691	430.619
631.819	429.864
631.947	434.924
632.075	436.593
632.203	443.551
632.331	436.212
632.460	437.458
632.588	435.525
632.716	436.441
632.844	434.890
632.972	435.559
633.100	431.763
633.228	434.610
633.356	427.195
633.485	430.110
633.613	431.881
633.741	429.297
633.869	434.720
633.997	430.254
634.125	428.788
634.253	421.873
634.381	427.644
634.510	432.669
634.638	422.585
634.766	430.992
634.894	427.229
635.022	423.102
635.150	423.585
635.278	428.797
635.406	425.856
635.535	429.322
635.663	428.839
635.791	417.864
635.919	427.720
636.047	425.297
636.175	420.042
636.303	422.517
636.431	424.076
636.560	425.559
636.688	423.831
636.816	420.449
636.944	421.127
637.072	426.686
637.200	424.500
637.328	418.492
637.456	425.059
637.585	418.398
637.713	421.856
637.841	418.068
637.969	418.966
638.097	420.271
638.225	417.246
638.353	416.263
638.481	417.203
638.610	418.941
638.738	414.754
638.866	418.254
638.994	415.712
639.122	421.271
639.250	419.059
639.378	417.398
639.506	413.644
639.635	419.881
639.763	411.246
639.891	420.898
640.019	421.153
640.147	414.627
640.275	413.847
640.403	411.381
640.531	418.347
640.660	416.797
640.788	417.805
640.916	410.898
641.044	412.220
641.172	415.771
641.300	413.831
641.428	416.966
641.556	413.619
641.685	412.949
641.813	412.915
641.941	417.186
642.069	412.288
642.197	414.229
642.325	411.754
642.453	414.008
642.581	411.636
642.710	416.220
642.838	415.407
642.966	410.203
643.094	409.017
643.222	407.669
643.350	411.924
643.478	410.119
643.606	413.390
643.735	410.110
643.863	412.780
643.991	412.271
644.119	408.508
644.247	412.102
644.375	414.110
644.503	414.110
644.631	413.483
644.760	413.017
644.888	412.525
645.016	411.110
645.144	415.898
645.272	409.864
645.400	412.263
645.528	407.449
645.656	403.144
645.785	406.542
645.913	405.424
646.041	409.873
646.169	403.280
646.297	405.551
646.425	405.653
646.553	399.907
646.681	401.203
646.810	405.703
646.938	401.754
647.066	400.212
647.194	401.119
647.322	400.771
647.450	398.636
647.578	400.195
647.706	397.415
647.835	395.008
647.963	399.331
648.091	399.653
648.219	394.525
648.347	399.653
648.475	392.839
648.603	394.856
648.731	393.288
648.860	392.280
648.988	392.788
649.116	390.347
649.244	388.686
649.372	386.034
649.500	387.788
649.628	390.076
649.756	388.153
649.885	387.051
650.013	387.932
650.141	379.831
650.269	381.093
650.397	381.542
650.525	377.661
650.653	380.000
650.781	372.398
650.910	378.847
651.038	373.559
651.166	377.178
651.294	373.305
651.422	365.542
651.550	372.746
651.678	369.390
651.806	368.508
651.935	369.364
652.063	365.847
652.191	369.669
652.319	367.669
652.447	369.364
652.575	367.966
652.703	364.890
652.831	367.017
652.960	367.169
653.088	363.898
653.216	361.907
653.344	359.771
653.472	362.703
653.600	360.542
653.728	361.551
653.856	359.712
653.985	359.585
654.113	360.881
654.241	362.492
654.369	360.500
654.497	360.500
654.625	359.661
654.753	359.271
654.881	360.805
655.010	356.280
655.138	355.932
655.266	355.347
655.394	350.644
655.522	355.390
655.650	350.729
655.778	352.703
655.906	357.246
656.035	354.636
656.163	354.085
656.291	353.136
656.419	355.797
656.547	356.076
656.675	352.500
656.803	352.475
656.931	351.610
657.060	350.771
657.188	351.949
657.316	352.127
657.444	349.729
657.572	350.653
657.700	346.051
657.828	348.729
657.956	347.186
658.085	351.949
658.213	343.949
658.341	352.729
658.469	344.864
658.597	347.229
658.725	351.280
658.853	342.237
658.981	344.076
659.110	344.932
659.238	341.678
659.366	344.517
659.494	336.254
659.622	338.220
659.750	340.144
659.878	341.093
660.006	341.763
660.135	343.212
660.263	339.093
660.391	341.424
660.519	341.466
660.647	336.881
660.775	339.559
660.903	338.203
661.031	339.517
661.160	336.186
661.288	336.805
661.416	336.297
661.544	337.314
661.672	339.873
661.800	336.483
661.928	333.678
662.056	328.898
662.185	335.703
662.313	329.907
662.441	333.805
662.569	332.059
662.697	331.398
662.825	334.500
662.953	335.178
663.081	329.754
663.210	327.653
663.338	331.873
663.466	331.907
663.594	325.441
663.722	322.924
663.850	326.051
663.978	325.347
664.106	324.068
664.235	324.492
664.363	329.212
664.491	324.797
664.619	325.949
664.747	321.831
664.875	323.873
665.003	322.322
