Rausch_Signal_at_679.99nm_cut_at_1286.00Y_01.dat
24.01.2024
11:20:41
cut middle at Y: 1286.00
top cursor: 1345 down cursor: 1227 mean of: 118 lines , 2560 datapoints
wavelength(nm)	intensity[arb. units]
515.994	104.102
516.122	103.314
516.250	102.661
516.378	102.831
516.506	104.483
516.635	103.864
516.763	103.246
516.891	103.381
517.019	103.678
517.147	103.085
517.275	103.754
517.403	103.568
517.531	103.381
517.660	103.415
517.788	103.178
517.916	102.873
518.044	103.585
518.172	103.017
518.300	103.364
518.428	103.085
518.556	103.356
518.685	102.890
518.813	104.110
518.941	103.661
519.069	103.610
519.197	103.432
519.325	103.847
519.453	103.551
519.581	104.195
519.710	103.593
519.838	103.441
519.966	104.136
520.094	103.975
520.222	103.712
520.350	104.822
520.478	104.008
520.606	103.568
520.735	103.059
520.863	104.085
520.991	103.500
521.119	103.271
521.247	103.737
521.375	102.737
521.503	103.449
521.631	103.263
521.760	103.432
521.888	103.847
522.016	104.754
522.144	104.237
522.272	104.771
522.400	102.822
522.528	103.678
522.656	104.186
522.785	104.661
522.913	102.975
523.041	103.814
523.169	104.102
523.297	103.847
523.425	102.907
523.553	103.322
523.681	103.593
523.810	103.593
523.938	103.653
524.066	103.644
524.194	103.797
524.322	104.958
524.450	103.941
524.578	103.542
524.706	103.907
524.835	103.432
524.963	103.720
525.091	104.093
525.219	103.653
525.347	104.102
525.475	104.398
525.603	104.017
525.731	103.831
525.860	103.873
525.988	103.839
526.116	104.051
526.244	103.568
526.372	103.881
526.500	104.203
526.628	103.924
526.756	103.602
526.885	103.881
527.013	103.763
527.141	104.356
527.269	103.636
527.397	104.331
527.525	104.492
527.653	104.059
527.781	103.432
527.910	103.458
528.038	103.975
528.166	104.195
528.294	104.008
528.422	104.898
528.550	103.059
528.678	103.542
528.806	103.983
528.935	104.305
529.063	104.449
529.191	104.144
529.319	104.297
529.447	104.576
529.575	105.254
529.703	104.246
529.831	104.246
529.960	104.593
530.088	103.653
530.216	105.034
530.344	104.492
530.472	104.517
530.600	104.144
530.728	103.941
530.856	104.068
530.985	104.051
531.113	103.458
531.241	103.932
531.369	104.195
531.497	103.805
531.625	104.110
531.753	104.483
531.881	103.475
532.010	104.085
532.138	103.229
532.266	103.475
532.394	104.288
532.522	104.458
532.650	103.288
532.778	103.949
532.906	104.322
533.035	103.941
533.163	103.958
533.291	104.017
533.419	104.424
533.547	104.025
533.675	104.136
533.803	103.814
533.931	103.737
534.060	104.000
534.188	104.364
534.316	104.034
534.444	104.381
534.572	104.593
534.700	103.644
534.828	103.720
534.956	103.881
535.085	103.763
535.213	104.025
535.341	104.339
535.469	103.636
535.597	104.737
535.725	103.958
535.853	103.924
535.981	103.932
536.110	104.686
536.238	104.432
536.366	104.314
536.494	104.458
536.622	103.754
536.750	103.703
536.878	103.466
537.006	104.364
537.135	105.017
537.263	103.797
537.391	103.534
537.519	104.288
537.647	104.263
537.775	104.339
537.903	103.856
538.031	105.500
538.160	105.322
538.288	104.941
538.416	104.941
538.544	103.975
538.672	104.144
538.800	105.042
538.928	104.186
539.056	104.449
539.185	104.449
539.313	104.720
539.441	104.331
539.569	104.542
539.697	103.966
539.825	103.424
539.953	103.432
540.081	104.237
540.210	103.610
540.338	104.254
540.466	104.000
540.594	103.636
540.722	105.110
540.850	103.814
540.978	103.432
541.106	104.195
541.235	104.475
541.363	104.500
541.491	103.644
541.619	103.983
541.747	103.627
541.875	103.864
542.003	104.517
542.131	104.127
542.260	103.907
542.388	103.619
542.516	104.559
542.644	104.254
542.772	104.229
542.900	103.788
543.028	104.763
543.156	104.492
543.285	103.169
543.413	104.297
543.541	104.610
543.669	104.305
543.797	104.500
543.925	104.305
544.053	103.788
544.181	104.161
544.310	104.390
544.438	105.017
544.566	104.178
544.694	103.814
544.822	103.534
544.950	104.407
545.078	104.051
545.206	103.814
545.335	104.814
545.463	104.042
545.591	103.559
545.719	104.153
545.847	103.458
545.975	104.186
546.103	104.619
546.231	104.119
546.360	104.881
546.488	104.576
546.616	103.924
546.744	104.237
546.872	104.169
547.000	103.636
547.128	104.703
547.256	103.602
547.385	104.000
547.513	103.966
547.641	103.924
547.769	103.280
547.897	104.059
548.025	104.669
548.153	103.975
548.281	104.169
548.410	104.788
548.538	104.356
548.666	104.220
548.794	104.898
548.922	104.000
549.050	104.627
549.178	104.678
549.306	104.271
549.435	104.441
549.563	104.288
549.691	104.127
549.819	103.992
549.947	103.729
550.075	103.873
550.203	104.593
550.331	104.331
550.460	104.127
550.588	103.805
550.716	104.381
550.844	104.568
550.972	103.398
551.100	103.771
551.228	105.068
551.356	104.042
551.485	104.653
551.613	104.780
551.741	103.992
551.869	104.042
551.997	103.458
552.125	104.254
552.253	104.153
552.381	102.839
552.510	104.695
552.638	104.492
552.766	104.610
552.894	104.144
553.022	105.127
553.150	104.034
553.278	104.136
553.406	105.008
553.535	104.297
553.663	104.449
553.791	103.695
553.919	104.500
554.047	104.636
554.175	103.449
554.303	104.475
554.431	104.271
554.560	104.720
554.688	104.703
554.816	104.686
554.944	105.008
555.072	104.017
555.200	104.424
555.328	103.856
555.456	104.051
555.585	104.610
555.713	104.805
555.841	104.568
555.969	104.703
556.097	104.220
556.225	104.059
556.353	104.568
556.481	105.102
556.610	104.754
556.738	104.017
556.866	104.102
556.994	103.780
557.122	104.644
557.250	104.424
557.378	104.644
557.506	103.585
557.635	104.034
557.763	103.983
557.891	104.856
558.019	103.814
558.147	103.661
558.275	104.907
558.403	104.339
558.531	103.280
558.660	103.593
558.788	104.051
558.916	104.186
559.044	103.559
559.172	103.661
559.300	103.754
559.428	103.873
559.556	105.415
559.685	103.754
559.813	103.729
559.941	103.763
560.069	104.153
560.197	104.441
560.325	104.144
560.453	103.814
560.581	104.669
560.710	103.483
560.838	104.093
560.966	104.161
561.094	104.195
561.222	104.754
561.350	104.203
561.478	103.746
561.606	104.085
561.735	104.441
561.863	104.432
561.991	104.161
562.119	104.127
562.247	104.653
562.375	104.127
562.503	104.814
562.631	104.178
562.760	104.788
562.888	103.797
563.016	104.085
563.144	104.907
563.272	104.051
563.400	103.797
563.528	104.288
563.656	104.220
563.785	104.559
563.913	103.695
564.041	104.042
564.169	104.169
564.297	104.347
564.425	103.924
564.553	105.153
564.681	104.814
564.810	103.441
564.938	103.746
565.066	104.025
565.194	104.195
565.322	104.415
565.450	104.034
565.578	104.398
565.706	103.797
565.835	103.975
565.963	103.551
566.091	103.814
566.219	104.568
566.347	103.712
566.475	103.864
566.603	103.932
566.731	104.102
566.860	104.017
566.988	103.763
567.116	104.305
567.244	103.678
567.372	103.636
567.500	104.737
567.628	103.602
567.756	104.076
567.885	104.686
568.013	104.483
568.141	103.686
568.269	104.297
568.397	103.551
568.525	104.610
568.653	104.220
568.781	103.941
568.910	104.780
569.038	104.644
569.166	104.271
569.294	103.915
569.422	103.763
569.550	103.695
569.678	104.398
569.806	103.669
569.935	104.771
570.063	104.076
570.191	103.653
570.319	103.364
570.447	103.737
570.575	104.212
570.703	103.585
570.831	103.712
570.960	104.008
571.088	103.559
571.216	103.508
571.344	105.085
571.472	104.483
571.600	103.924
571.728	104.508
571.856	103.949
571.985	103.466
572.113	104.517
572.241	104.186
572.369	104.059
572.497	103.407
572.625	103.898
572.753	104.508
572.881	103.890
573.010	104.975
573.138	104.271
573.266	104.788
573.394	104.576
573.522	103.525
573.650	103.712
573.778	104.076
573.906	104.407
574.035	104.492
574.163	103.508
574.291	103.864
574.419	103.975
574.547	103.805
574.675	104.475
574.803	103.636
574.931	103.856
575.060	103.924
575.188	103.839
575.316	105.076
575.444	104.144
575.572	103.898
575.700	104.271
575.828	105.992
575.956	104.551
576.085	103.949
576.213	104.669
576.341	104.492
576.469	104.619
576.597	104.059
576.725	104.017
576.853	104.415
576.981	103.432
577.110	103.119
577.238	104.602
577.366	104.136
577.494	103.390
577.622	102.864
577.750	104.127
577.878	105.127
578.006	104.229
578.135	104.890
578.263	104.407
578.391	104.085
578.519	104.144
578.647	104.237
578.775	103.110
578.903	104.653
579.031	104.169
579.160	103.949
579.288	104.432
579.416	104.220
579.544	104.322
579.672	104.280
579.800	103.873
579.928	104.085
580.056	104.864
580.185	104.017
580.313	104.068
580.441	104.085
580.569	103.347
580.697	104.703
580.825	104.110
580.953	104.525
581.081	104.669
581.210	104.254
581.338	104.636
581.466	104.169
581.594	104.466
581.722	103.551
581.850	103.653
581.978	103.500
582.106	103.390
582.235	104.508
582.363	104.246
582.491	105.059
582.619	104.627
582.747	104.568
582.875	104.500
583.003	103.797
583.131	103.712
583.260	104.186
583.388	104.254
583.516	103.831
583.644	103.958
583.772	104.127
583.900	104.076
584.028	103.008
584.156	104.237
584.285	104.483
584.413	103.822
584.541	104.932
584.669	103.441
584.797	103.907
584.925	103.915
585.053	104.500
585.181	104.093
585.310	104.686
585.438	104.737
585.566	104.347
585.694	104.220
585.822	103.636
585.950	103.839
586.078	104.144
586.206	104.305
586.335	104.034
586.463	105.364
586.591	104.593
586.719	104.958
586.847	103.610
586.975	104.314
587.103	104.297
587.231	104.653
587.360	104.237
587.488	104.661
587.616	104.305
587.744	104.356
587.872	103.534
588.000	104.093
588.128	104.076
588.256	104.042
588.385	104.093
588.513	103.551
588.641	104.136
588.769	104.051
588.897	104.415
589.025	104.737
589.153	104.203
589.281	103.034
589.410	104.483
589.538	104.763
589.666	104.271
589.794	104.492
589.922	103.627
590.050	104.000
590.178	104.449
590.306	103.881
590.435	104.322
590.563	104.051
590.691	105.000
590.819	103.890
590.947	104.907
591.075	103.932
591.203	104.042
591.331	104.025
591.460	104.161
591.588	103.619
591.716	103.992
591.844	104.525
591.972	103.051
592.100	104.720
592.228	104.703
592.356	103.966
592.485	105.322
592.613	104.958
592.741	104.763
592.869	104.508
592.997	103.958
593.125	103.720
593.253	104.161
593.381	104.398
593.510	103.220
593.638	104.102
593.766	103.542
593.894	103.576
594.022	104.432
594.150	104.864
594.278	104.669
594.406	103.424
594.535	104.695
594.663	104.856
594.791	105.025
594.919	103.695
595.047	104.458
595.175	105.169
595.303	104.992
595.431	104.864
595.560	103.958
595.688	104.839
595.816	104.941
595.944	104.797
596.072	104.839
596.200	104.847
596.328	104.695
596.456	104.169
596.585	104.322
596.713	104.415
596.841	104.890
596.969	104.000
597.097	104.839
597.225	104.161
597.353	104.500
597.481	104.534
597.610	104.763
597.738	105.102
597.866	104.153
597.994	104.992
598.122	105.153
598.250	103.983
598.378	105.407
598.506	104.822
598.635	105.169
598.763	104.585
598.891	104.381
599.019	104.288
599.147	103.424
599.275	103.576
599.403	104.475
599.531	104.644
599.660	103.280
599.788	104.992
599.916	104.915
600.044	104.347
600.172	105.398
600.300	103.805
600.428	104.475
600.556	104.271
600.685	103.653
600.813	103.331
600.941	105.059
601.069	103.678
601.197	104.466
601.325	103.958
601.453	104.237
601.581	104.568
601.710	104.331
601.838	104.822
601.966	105.280
602.094	104.008
602.222	104.203
602.350	104.212
602.478	104.322
602.606	104.525
602.735	105.042
602.863	104.144
602.991	104.525
603.119	104.542
603.247	104.669
603.375	104.508
603.503	103.568
603.631	104.280
603.760	104.839
603.888	104.678
604.016	103.983
604.144	104.127
604.272	104.907
604.400	104.246
604.528	104.678
604.656	105.525
604.785	104.381
604.913	104.822
605.041	104.805
605.169	104.492
605.297	103.992
605.425	104.127
605.553	104.627
605.681	104.729
605.810	104.076
605.938	105.203
606.066	104.780
606.194	104.525
606.322	104.585
606.450	104.661
606.578	104.576
606.706	104.195
606.835	104.669
606.963	104.229
607.091	104.771
607.219	104.373
607.347	104.780
607.475	104.085
607.603	104.949
607.731	104.373
607.860	105.110
607.988	103.661
608.116	104.932
608.244	104.695
608.372	104.669
608.500	104.822
608.628	103.898
608.756	104.805
608.885	104.331
609.013	104.017
609.141	104.085
609.269	104.653
609.397	104.644
609.525	104.941
609.653	104.246
609.781	104.720
609.910	104.661
610.038	104.254
610.166	104.288
610.294	105.144
610.422	104.424
610.550	104.568
610.678	103.856
610.806	104.551
610.935	104.551
611.063	104.432
611.191	104.102
611.319	103.992
611.447	104.780
611.575	104.000
611.703	104.754
611.831	104.517
611.960	104.203
612.088	104.381
612.216	104.839
612.344	104.729
612.472	104.364
612.600	103.907
612.728	104.576
612.856	103.898
612.985	104.229
613.113	104.025
613.241	104.729
613.369	105.093
613.497	103.890
613.625	104.449
613.753	103.797
613.881	104.271
614.010	104.958
614.138	104.458
614.266	104.958
614.394	103.881
614.522	104.178
614.650	103.983
614.778	104.788
614.906	104.712
615.035	105.441
615.163	104.949
615.291	103.898
615.419	104.873
615.547	104.466
615.675	103.568
615.803	103.822
615.931	104.441
616.060	104.280
616.188	103.695
616.316	104.288
616.444	104.356
616.572	103.780
616.700	105.254
616.828	104.669
616.956	103.212
617.085	104.102
617.213	104.644
617.341	104.263
617.469	104.356
617.597	104.695
617.725	103.856
617.853	103.966
617.981	104.331
618.110	103.483
618.238	103.703
618.366	104.008
618.494	104.559
618.622	104.797
618.750	104.839
618.878	105.008
619.006	103.703
619.135	104.763
619.263	104.898
619.391	104.127
619.519	104.458
619.647	104.280
619.775	104.805
619.903	104.314
620.031	103.975
620.160	103.941
620.288	105.280
620.416	103.839
620.544	103.610
620.672	104.576
620.800	104.288
620.928	104.619
621.056	104.280
621.185	104.297
621.313	103.924
621.441	105.008
621.569	104.627
621.697	104.958
621.825	104.254
621.953	104.763
622.081	104.644
622.210	104.653
622.338	103.831
622.466	104.619
622.594	104.746
622.722	104.881
622.850	104.407
622.978	104.492
623.106	104.610
623.235	104.627
623.363	104.593
623.491	104.458
623.619	104.627
623.747	104.678
623.875	104.229
624.003	104.475
624.131	104.305
624.260	104.331
624.388	104.636
624.516	105.398
624.644	104.381
624.772	104.508
624.900	104.847
625.028	103.941
625.156	104.534
625.285	104.576
625.413	104.280
625.541	105.280
625.669	104.610
625.797	105.025
625.925	104.949
626.053	104.949
626.181	104.746
626.310	104.424
626.438	104.449
626.566	105.271
626.694	104.831
626.822	104.593
626.950	104.186
627.078	104.610
627.206	104.661
627.335	103.983
627.463	104.305
627.591	105.186
627.719	104.619
627.847	104.949
627.975	103.881
628.103	105.169
628.231	104.500
628.360	105.085
628.488	105.500
628.616	104.873
628.744	104.695
628.872	105.432
629.000	104.856
629.128	104.576
629.256	105.110
629.385	104.661
629.513	104.381
629.641	104.661
629.769	104.797
629.897	104.364
630.025	105.297
630.153	104.805
630.281	104.441
630.410	103.788
630.538	104.161
630.666	104.161
630.794	104.305
630.922	104.237
631.050	104.415
631.178	104.458
631.306	105.178
631.435	104.280
631.563	104.347
631.691	104.076
631.819	104.000
631.947	104.703
632.075	104.720
632.203	105.136
632.331	105.042
632.460	104.508
632.588	103.839
632.716	104.017
632.844	104.525
632.972	105.025
633.100	104.297
633.228	104.992
633.356	104.517
633.485	103.932
633.613	105.068
633.741	104.602
633.869	104.720
633.997	104.610
634.125	104.958
634.253	105.136
634.381	104.475
634.510	104.576
634.638	104.644
634.766	103.703
634.894	104.907
635.022	104.644
635.150	105.093
635.278	105.076
635.406	104.407
635.535	104.449
635.663	104.576
635.791	103.805
635.919	104.898
636.047	104.492
636.175	104.280
636.303	105.288
636.431	105.178
636.560	104.398
636.688	104.771
636.816	104.492
636.944	104.356
637.072	105.483
637.200	104.907
637.328	104.127
637.456	104.958
637.585	104.924
637.713	104.966
637.841	104.237
637.969	105.271
638.097	104.881
638.225	104.551
638.353	103.814
638.481	104.059
638.610	104.034
638.738	103.008
638.866	104.788
638.994	104.576
639.122	104.831
639.250	104.525
639.378	105.025
639.506	104.042
639.635	104.331
639.763	104.822
639.891	105.017
640.019	105.441
640.147	104.915
640.275	104.610
640.403	104.661
640.531	104.864
640.660	103.822
640.788	104.831
640.916	104.788
641.044	104.873
641.172	104.212
641.300	104.780
641.428	104.500
641.556	103.398
641.685	104.169
641.813	104.890
641.941	104.746
642.069	103.788
642.197	104.347
642.325	104.119
642.453	104.593
642.581	104.085
642.710	103.949
642.838	104.492
642.966	104.864
643.094	104.390
643.222	104.559
643.350	104.441
643.478	104.746
643.606	104.381
643.735	103.441
643.863	104.966
643.991	105.280
644.119	103.890
644.247	104.797
644.375	104.373
644.503	105.153
644.631	105.000
644.760	104.797
644.888	104.644
645.016	104.263
645.144	105.144
645.272	104.873
645.400	104.195
645.528	104.644
645.656	103.483
645.785	105.703
645.913	104.653
646.041	104.619
646.169	104.432
646.297	104.466
646.425	105.441
646.553	105.246
646.681	104.822
646.810	104.492
646.938	104.161
647.066	103.898
647.194	104.271
647.322	104.576
647.450	104.398
647.578	104.941
647.706	104.542
647.835	104.797
647.963	104.915
648.091	103.797
648.219	103.966
648.347	104.373
648.475	104.136
648.603	104.322
648.731	104.492
648.860	104.864
648.988	104.093
649.116	104.661
649.244	103.729
649.372	104.381
649.500	104.110
649.628	104.271
649.756	104.678
649.885	105.034
650.013	104.424
650.141	103.636
650.269	104.907
650.397	104.712
650.525	104.229
650.653	104.890
650.781	104.381
650.910	104.712
651.038	104.466
651.166	104.517
651.294	105.153
651.422	104.449
651.550	104.720
651.678	103.415
651.806	104.203
651.935	104.153
652.063	105.008
652.191	104.373
652.319	104.178
652.447	104.534
652.575	104.644
652.703	103.534
652.831	104.110
652.960	104.220
653.088	104.568
653.216	103.881
653.344	104.669
653.472	104.415
653.600	104.517
653.728	103.788
653.856	104.449
653.985	104.229
654.113	104.924
654.241	105.288
654.369	104.703
654.497	105.000
654.625	104.229
654.753	104.398
654.881	104.237
655.010	104.347
655.138	103.178
655.266	104.059
655.394	104.068
655.522	104.331
655.650	104.220
655.778	104.466
655.906	104.534
656.035	104.831
656.163	104.534
656.291	104.195
656.419	104.322
656.547	104.508
656.675	104.720
656.803	104.610
656.931	104.720
657.060	104.805
657.188	104.195
657.316	104.686
657.444	104.983
657.572	104.110
657.700	104.881
657.828	104.712
657.956	104.008
658.085	104.729
658.213	104.915
658.341	103.678
658.469	104.551
658.597	104.466
658.725	105.034
658.853	104.500
658.981	103.932
659.110	104.763
659.238	104.941
659.366	104.051
659.494	104.297
659.622	104.703
659.750	103.890
659.878	104.576
660.006	104.898
660.135	105.008
660.263	104.246
660.391	104.034
660.519	104.737
660.647	104.008
660.775	104.271
660.903	103.966
661.031	103.593
661.160	104.576
661.288	104.136
661.416	104.500
661.544	103.737
661.672	104.195
661.800	104.347
661.928	104.432
662.056	104.890
662.185	104.203
662.313	104.237
662.441	103.847
662.569	104.356
662.697	104.542
662.825	103.983
662.953	104.136
663.081	104.034
663.210	103.212
663.338	104.627
663.466	104.576
663.594	104.093
663.722	103.119
663.850	104.186
663.978	104.593
664.106	105.000
664.235	104.458
664.363	104.110
664.491	103.407
664.619	104.746
664.747	103.788
664.875	104.025
665.003	104.280
